Wavelength (nm)	EQE (%)	Current (A)	Dark Current (A) -> 	-367.834580000E-12	
400.000000	23.759653	-5.025414E-7
403.000000	25.307444	-1.216546E-6
406.000000	24.145316	-1.886248E-6
409.000000	24.866720	-2.734714E-6
412.000000	24.396168	-4.109737E-6
415.000000	23.139407	-1.861473E-6
418.000000	25.443730	-1.774906E-6
421.000000	24.384638	-1.999979E-6
424.000000	24.218788	-1.795910E-6
427.000000	23.939470	-2.319800E-6
430.000000	23.434146	-3.622696E-6
433.000000	23.197518	-3.360655E-6
436.000000	23.604135	-3.390059E-6
439.000000	22.887518	-3.606184E-6
442.000000	22.742399	-3.762836E-6
445.000000	22.791827	-4.284574E-6
448.000000	22.708249	-4.846333E-6
451.000000	22.205238	-4.175722E-6
454.000000	23.237870	-4.022776E-6
457.000000	23.171923	-4.478444E-6
460.000000	24.148447	-3.431833E-6
463.000000	23.434309	-5.726199E-6
466.000000	24.619834	-4.738155E-6
469.000000	24.613044	-4.358965E-6
472.000000	24.967628	-4.091281E-6
475.000000	24.569508	-3.818538E-6
478.000000	25.213560	-5.030231E-6
481.000000	25.926534	-4.307075E-6
484.000000	25.981739	-4.162476E-6
487.000000	25.742527	-5.696013E-6
490.000000	26.102303	-4.753567E-6
493.000000	25.990729	-4.812496E-6
496.000000	26.139519	-5.823229E-6
499.000000	26.560562	-5.897070E-6
502.000000	26.795268	-5.404509E-6
505.000000	26.819301	-6.587409E-6
508.000000	26.479105	-8.393927E-6
511.000000	26.518178	-9.664227E-6
514.000000	26.735983	-6.244473E-6
517.000000	27.129742	-6.241381E-6
520.000000	26.920438	-1.065844E-5
523.000000	26.559798	-9.579744E-6
526.000000	27.319323	-5.845832E-6
529.000000	27.444262	-7.773674E-6
532.000000	27.176285	-8.364606E-6
535.000000	26.653994	-3.819302E-6
538.000000	27.951304	-6.997635E-6
541.000000	27.035028	-9.080100E-6
544.000000	27.248732	-4.150363E-6
547.000000	27.755380	-7.862818E-6
550.000000	27.382839	-7.020667E-6
553.000000	27.619018	-5.112758E-6
556.000000	27.307138	-6.857354E-6
559.000000	27.718590	-4.823227E-6
562.000000	27.284401	-6.082291E-6
565.000000	27.492220	-5.741429E-6
568.000000	27.317562	-5.629582E-6
571.000000	27.079153	-6.631498E-6
574.000000	27.020831	-6.115205E-6
577.000000	26.759311	-9.013335E-6
580.000000	26.755263	-6.404624E-6
583.000000	26.920500	-6.834844E-6
586.000000	26.732202	-8.810422E-6
589.000000	26.923704	-6.116530E-6
592.000000	26.086630	-3.409443E-6
595.000000	25.977514	-4.059195E-6
598.000000	26.003827	-3.226350E-6
601.000000	25.952766	-4.400831E-6
604.000000	25.662393	-4.505301E-6
607.000000	25.849705	-4.865068E-6
610.000000	25.616841	-4.918811E-6
613.000000	25.401404	-8.307779E-6
616.000000	24.485951	-1.015870E-5
619.000000	24.710277	-5.886138E-6
622.000000	25.365345	-1.200249E-5
625.000000	24.238101	-1.377411E-5
628.000000	24.237558	-7.147175E-6
631.000000	24.794668	-8.833421E-6
634.000000	24.279004	-1.057092E-5
637.000000	23.973029	-1.338571E-5
640.000000	23.791552	-1.311103E-5
643.000000	23.962103	-1.255406E-5
646.000000	24.158855	-1.509284E-5
649.000000	24.028571	-1.456134E-5
652.000000	24.118486	-1.828884E-5
655.000000	24.073070	-1.678510E-5
658.000000	24.143223	-1.822298E-5
661.000000	23.603357	-2.135332E-5
664.000000	23.934627	-1.914188E-5
667.000000	24.000470	-2.165597E-5
670.000000	24.042109	-2.175959E-5
673.000000	23.900470	-2.260287E-5
676.000000	23.516907	-2.352965E-5
679.000000	23.605430	-2.347680E-5
682.000000	23.368910	-2.365848E-5
685.000000	23.257343	-2.493901E-5
688.000000	23.035108	-2.453439E-5
691.000000	22.923050	-2.468474E-5
694.000000	22.407992	-2.322972E-5
697.000000	22.076734	-2.236083E-5
700.000000	21.584915	-2.405873E-5
703.000000	20.750524	-2.350207E-5
706.000000	20.024766	-2.337844E-5
709.000000	19.132059	-2.159166E-5
712.000000	18.129591	-2.332140E-5
715.000000	17.051708	-1.905153E-5
718.000000	15.860347	-1.678841E-5
721.000000	14.465128	-1.897458E-5
724.000000	13.080157	-1.339026E-5
727.000000	11.840235	-1.366986E-5
730.000000	10.299577	-1.051194E-5
733.000000	9.073608	-9.022187E-6
736.000000	7.759942	-7.804696E-6
739.000000	6.584813	-5.531670E-6
742.000000	5.635160	-5.362509E-6
745.000000	4.661438	-3.613939E-6
748.000000	3.927617	-3.221976E-6
751.000000	3.211388	-2.536702E-6
754.000000	2.646449	-1.822107E-6
757.000000	2.195818	-1.724827E-6
760.000000	1.768646	-1.127175E-6
763.000000	1.475617	-1.027824E-6
766.000000	1.216510	-7.709900E-7
769.000000	1.006984	-5.732633E-7
772.000000	0.839260	-5.294596E-7
775.000000	0.698976	-3.759357E-7
778.000000	0.598899	-3.543707E-7
781.000000	0.511858	-2.872452E-7
784.000000	0.445369	-2.356688E-7
787.000000	0.390756	-2.250501E-7
790.000000	0.343447	-1.799897E-7
793.000000	0.308911	-1.814625E-7
796.000000	0.276249	-1.538976E-7
799.000000	0.250602	-1.401060E-7
802.000000	0.228463	-1.360161E-7
805.000000	0.208278	-1.150796E-7
808.000000	0.192901	-1.176143E-7
811.000000	0.176050	-9.760734E-8
814.000000	0.166615	-9.807422E-8
817.000000	0.154316	-9.081814E-8
820.000000	0.144594	-8.305661E-8
823.000000	0.136117	-8.719546E-8
826.000000	0.127120	-7.331818E-8
829.000000	0.120959	-7.946436E-8
832.000000	0.112697	-7.015264E-8
835.000000	0.107476	-7.265825E-8
838.000000	0.101359	-6.930540E-8
841.000000	0.095572	-6.125546E-8
844.000000	0.090155	-6.310547E-8
847.000000	0.085545	-5.614120E-8
850.000000	0.080606	-5.755326E-8
853.000000	0.075706	-5.050225E-8
856.000000	0.071296	-4.793224E-8
859.000000	0.067182	-4.549874E-8
862.000000	0.063678	-3.941117E-8
865.000000	0.059739	-3.702769E-8
868.000000	0.056391	-3.252680E-8
871.000000	0.053546	-3.015329E-8
874.000000	0.050360	-2.610042E-8
877.000000	0.047223	-2.326211E-8
880.000000	0.044431	-2.153600E-8
883.000000	0.041849	-1.900601E-8
886.000000	0.039369	-1.763970E-8
889.000000	0.036960	-1.590046E-8
892.000000	0.034521	-1.432877E-8
895.000000	0.032563	-1.300207E-8
898.000000	0.030460	-1.207520E-8
901.000000	0.028497	-1.097450E-8
904.000000	0.026787	-1.075967E-8
907.000000	0.024778	-9.749326E-9
910.000000	0.023279	-9.013124E-9
913.000000	0.021688	-8.810311E-9
916.000000	0.020125	-7.735419E-9
919.000000	0.018690	-7.450776E-9
922.000000	0.017314	-6.942970E-9
925.000000	0.016027	-6.114234E-9
928.000000	0.014798	-5.878951E-9
931.000000	0.013692	-5.024871E-9
934.000000	0.012721	-4.947172E-9
937.000000	0.011721	-4.436779E-9
940.000000	0.010826	-3.808451E-9
943.000000	0.009944	-3.559983E-9
946.000000	0.009131	-3.086797E-9
949.000000	0.008395	-2.991354E-9
952.000000	0.007722	-2.610438E-9
955.000000	0.007168	-2.291995E-9
958.000000	0.006580	-2.039410E-9
961.000000	0.006064	-1.803255E-9
964.000000	0.005581	-1.654605E-9
967.000000	0.005166	-1.456468E-9
970.000000	0.004754	-1.319157E-9
973.000000	0.004406	-1.170619E-9
976.000000	0.004077	-1.040845E-9
979.000000	0.003855	-9.089541E-10
982.000000	0.003669	-7.957982E-10
985.000000	0.003410	-7.235438E-10
988.000000	0.003192	-6.622828E-10
991.000000	0.002970	-6.034552E-10
994.000000	0.002869	-5.433196E-10
997.000000	0.002746	-5.034091E-10
1000.000000	0.002570	-4.733413E-10
1003.000000	0.002425	-4.434552E-10
1006.000000	0.002318	-4.119916E-10
1009.000000	0.002247	-3.837481E-10
1012.000000	0.002116	-3.686498E-10
1015.000000	0.001990	-3.525248E-10
1018.000000	0.001907	-3.382827E-10
1021.000000	0.001791	-3.252961E-10
1024.000000	0.001679	-3.157583E-10
1027.000000	0.001527	-3.138109E-10
1030.000000	0.001407	-3.115642E-10
1033.000000	0.001307	-3.025135E-10
1036.000000	0.001159	-2.986833E-10
1039.000000	0.001018	-2.974163E-10
1042.000000	0.001066	-2.788103E-10
1045.000000	0.001187	-2.591307E-10
1048.000000	0.001179	-2.510943E-10
1051.000000	0.001132	-2.465427E-10
1054.000000	0.000996	-2.468653E-10
1057.000000	0.000885	-2.472758E-10
1060.000000	0.000786	-2.484844E-10
1063.000000	0.000663	-2.545437E-10
1066.000000	0.000533	-2.665509E-10
1069.000000	0.000325	-3.473863E-10
1072.000000	0.000217	-4.740686E-10
1075.000000	0.000397	-2.576760E-10
1078.000000	0.000516	-2.336028E-10
1081.000000	0.000601	-2.214609E-10
1084.000000	0.000621	-2.135598E-10
1087.000000	0.000674	-2.106152E-10
1090.000000	0.000671	-2.041335E-10
1093.000000	0.000697	-2.031422E-10
1096.000000	0.000697	-2.005262E-10
1099.000000	0.000642	-1.989013E-10
