Wavelength (nm)	EQE (%)	Current (A)	Dark Current (A) -> 	-165.004480000E-12	
400.000000	30.609826	-6.474297E-7
403.000000	32.887512	-1.580925E-6
406.000000	31.190214	-2.436600E-6
409.000000	31.905775	-3.508833E-6
412.000000	30.939865	-5.212077E-6
415.000000	29.053621	-2.337248E-6
418.000000	31.907124	-2.225780E-6
421.000000	30.379006	-2.491625E-6
424.000000	30.261584	-2.244005E-6
427.000000	29.793319	-2.887054E-6
430.000000	29.059176	-4.492272E-6
433.000000	28.245598	-4.091977E-6
436.000000	27.902818	-4.007442E-6
439.000000	27.787107	-4.378169E-6
442.000000	27.269065	-4.511794E-6
445.000000	27.204168	-5.114038E-6
448.000000	26.636801	-5.684754E-6
451.000000	26.312911	-4.948175E-6
454.000000	27.331169	-4.731379E-6
457.000000	26.684532	-5.157327E-6
460.000000	27.936891	-3.970224E-6
463.000000	26.633469	-6.507917E-6
466.000000	28.198447	-5.426869E-6
469.000000	28.148266	-4.985052E-6
472.000000	28.465328	-4.664426E-6
475.000000	28.033147	-4.356849E-6
478.000000	27.740204	-5.534309E-6
481.000000	29.174192	-4.846596E-6
484.000000	28.920149	-4.633232E-6
487.000000	28.123443	-6.222835E-6
490.000000	29.069659	-5.293961E-6
493.000000	28.537558	-5.284072E-6
496.000000	28.342137	-6.313917E-6
499.000000	28.467788	-6.320519E-6
502.000000	29.020012	-5.853232E-6
505.000000	28.695139	-7.048156E-6
508.000000	27.638284	-8.761389E-6
511.000000	27.221042	-9.920377E-6
514.000000	28.606067	-6.681251E-6
517.000000	29.049016	-6.682923E-6
520.000000	27.644745	-1.094521E-5
523.000000	27.087562	-9.770101E-6
526.000000	29.043953	-6.214871E-6
529.000000	29.488609	-8.352742E-6
532.000000	28.435603	-8.752212E-6
535.000000	29.407757	-4.213894E-6
538.000000	29.771577	-7.453342E-6
541.000000	28.287332	-9.500704E-6
544.000000	29.786851	-4.536954E-6
547.000000	29.128130	-8.251704E-6
550.000000	29.177435	-7.480782E-6
553.000000	30.135055	-5.578520E-6
556.000000	29.456191	-7.397023E-6
559.000000	30.527190	-5.311943E-6
562.000000	30.034893	-6.695436E-6
565.000000	30.196394	-6.306164E-6
568.000000	29.918450	-6.165571E-6
571.000000	29.843285	-7.308415E-6
574.000000	29.969246	-6.782474E-6
577.000000	28.976757	-9.760237E-6
580.000000	29.073107	-6.959465E-6
583.000000	29.272228	-7.431924E-6
586.000000	28.794586	-9.490144E-6
589.000000	29.739836	-6.756299E-6
592.000000	29.037900	-3.795165E-6
595.000000	28.810462	-4.501866E-6
598.000000	28.750077	-3.567083E-6
601.000000	28.835085	-4.889588E-6
604.000000	28.558889	-5.013811E-6
607.000000	28.345035	-5.334704E-6
610.000000	28.270044	-5.428265E-6
613.000000	27.671686	-9.050297E-6
616.000000	26.248707	-1.089003E-5
619.000000	27.550759	-6.562758E-6
622.000000	27.012863	-1.278207E-5
625.000000	25.378764	-1.442233E-5
628.000000	27.219522	-8.026497E-6
631.000000	27.853162	-9.923049E-6
634.000000	27.229347	-1.185548E-5
637.000000	26.193600	-1.462560E-5
640.000000	26.000381	-1.432827E-5
643.000000	26.342956	-1.380142E-5
646.000000	26.056545	-1.627839E-5
649.000000	26.193204	-1.587311E-5
652.000000	25.671583	-1.946654E-5
655.000000	25.625541	-1.786757E-5
658.000000	25.689408	-1.939002E-5
661.000000	24.665089	-2.231384E-5
664.000000	25.370351	-2.029011E-5
667.000000	25.234275	-2.276925E-5
670.000000	25.246724	-2.284984E-5
673.000000	25.192444	-2.382470E-5
676.000000	24.976127	-2.498966E-5
679.000000	25.059725	-2.492317E-5
682.000000	25.143639	-2.545520E-5
685.000000	25.130164	-2.694725E-5
688.000000	25.204227	-2.684469E-5
691.000000	25.312152	-2.725745E-5
694.000000	25.276404	-2.620332E-5
697.000000	25.430674	-2.575793E-5
700.000000	25.004187	-2.786988E-5
703.000000	24.477811	-2.772360E-5
706.000000	24.038107	-2.806392E-5
709.000000	23.573253	-2.660381E-5
712.000000	22.677808	-2.917210E-5
715.000000	22.038713	-2.462341E-5
718.000000	20.812399	-2.203023E-5
721.000000	19.208721	-2.519697E-5
724.000000	17.643100	-1.806138E-5
727.000000	15.973785	-1.844215E-5
730.000000	14.045864	-1.433547E-5
733.000000	12.373894	-1.230377E-5
736.000000	10.512103	-1.057273E-5
739.000000	8.818420	-7.408044E-6
742.000000	7.456720	-7.095935E-6
745.000000	6.089764	-4.721297E-6
748.000000	5.030327	-4.126572E-6
751.000000	4.043145	-3.193714E-6
754.000000	3.229006	-2.223203E-6
757.000000	2.627212	-2.063690E-6
760.000000	2.082274	-1.327053E-6
763.000000	1.675966	-1.167375E-6
766.000000	1.344868	-8.523398E-7
769.000000	1.086959	-6.187923E-7
772.000000	0.881869	-5.563398E-7
775.000000	0.715026	-3.845680E-7
778.000000	0.597511	-3.535493E-7
781.000000	0.494054	-2.772541E-7
784.000000	0.420445	-2.224803E-7
787.000000	0.359814	-2.072295E-7
790.000000	0.308693	-1.617764E-7
793.000000	0.272149	-1.598674E-7
796.000000	0.238476	-1.328544E-7
799.000000	0.213848	-1.195577E-7
802.000000	0.191901	-1.142492E-7
805.000000	0.172606	-9.536986E-8
808.000000	0.157600	-9.609044E-8
811.000000	0.143257	-7.942583E-8
814.000000	0.132840	-7.819354E-8
817.000000	0.122628	-7.216895E-8
820.000000	0.114026	-6.549793E-8
823.000000	0.106596	-6.828478E-8
826.000000	0.099177	-5.720181E-8
829.000000	0.093461	-6.139962E-8
832.000000	0.087185	-5.427128E-8
835.000000	0.082947	-5.607556E-8
838.000000	0.077857	-5.323563E-8
841.000000	0.073602	-4.717461E-8
844.000000	0.069054	-4.833542E-8
847.000000	0.065441	-4.294736E-8
850.000000	0.061788	-4.411734E-8
853.000000	0.058289	-3.888324E-8
856.000000	0.055362	-3.721997E-8
859.000000	0.052218	-3.536441E-8
862.000000	0.049823	-3.083599E-8
865.000000	0.046899	-2.906873E-8
868.000000	0.044360	-2.558744E-8
871.000000	0.041942	-2.361852E-8
874.000000	0.039591	-2.051907E-8
877.000000	0.037047	-1.824936E-8
880.000000	0.035075	-1.700077E-8
883.000000	0.032834	-1.491190E-8
886.000000	0.030977	-1.387952E-8
889.000000	0.029037	-1.249204E-8
892.000000	0.027302	-1.133238E-8
895.000000	0.025768	-1.028895E-8
898.000000	0.024286	-9.627571E-9
901.000000	0.022572	-8.692616E-9
904.000000	0.021194	-8.513038E-9
907.000000	0.019609	-7.715238E-9
910.000000	0.018449	-7.143099E-9
913.000000	0.017198	-6.986646E-9
916.000000	0.015925	-6.121116E-9
919.000000	0.014743	-5.877251E-9
922.000000	0.013642	-5.470662E-9
925.000000	0.012678	-4.836410E-9
928.000000	0.011793	-4.685209E-9
931.000000	0.010879	-3.992691E-9
934.000000	0.010068	-3.915400E-9
937.000000	0.009283	-3.513752E-9
940.000000	0.008488	-2.985847E-9
943.000000	0.007866	-2.816064E-9
946.000000	0.007175	-2.425768E-9
949.000000	0.006629	-2.362308E-9
952.000000	0.006079	-2.055026E-9
955.000000	0.005624	-1.798282E-9
958.000000	0.005154	-1.597364E-9
961.000000	0.004704	-1.398908E-9
964.000000	0.004331	-1.283969E-9
967.000000	0.003976	-1.121066E-9
970.000000	0.003651	-1.013234E-9
973.000000	0.003370	-8.953577E-10
976.000000	0.003113	-7.946077E-10
979.000000	0.002894	-6.823024E-10
982.000000	0.002716	-5.890020E-10
985.000000	0.002502	-5.309490E-10
988.000000	0.002324	-4.821340E-10
991.000000	0.002152	-4.371793E-10
994.000000	0.002036	-3.856488E-10
997.000000	0.001928	-3.534809E-10
1000.000000	0.001778	-3.274427E-10
1003.000000	0.001664	-3.043378E-10
1006.000000	0.001566	-2.784760E-10
1009.000000	0.001494	-2.552240E-10
1012.000000	0.001399	-2.438210E-10
1015.000000	0.001309	-2.317729E-10
1018.000000	0.001235	-2.191322E-10
1021.000000	0.001151	-2.090960E-10
1024.000000	0.001072	-2.015468E-10
1027.000000	0.000973	-1.999863E-10
1030.000000	0.000896	-1.984204E-10
1033.000000	0.000824	-1.907304E-10
1036.000000	0.000732	-1.886715E-10
1039.000000	0.000642	-1.873752E-10
1042.000000	0.000657	-1.716961E-10
1045.000000	0.000711	-1.552486E-10
1048.000000	0.000699	-1.488431E-10
1051.000000	0.000661	-1.439452E-10
1054.000000	0.000583	-1.444145E-10
1057.000000	0.000519	-1.450070E-10
1060.000000	0.000468	-1.478929E-10
1063.000000	0.000397	-1.526676E-10
1066.000000	0.000326	-1.631614E-10
1069.000000	0.000214	-2.286699E-10
1072.000000	0.000152	-3.312617E-10
1075.000000	0.000240	-1.556180E-10
1078.000000	0.000296	-1.340029E-10
1081.000000	0.000338	-1.246412E-10
1084.000000	0.000343	-1.179777E-10
1087.000000	0.000367	-1.146518E-10
1090.000000	0.000367	-1.117013E-10
1093.000000	0.000375	-1.093433E-10
1096.000000	0.000373	-1.073841E-10
1099.000000	0.000344	-1.064985E-10
