Voltage (V)	Current (A)	Current Density (A/m^2)	 Dividing Wavelength (nm) = 530  Light Power Density (W/m^2) = 1094.384842  Total Light Power Density (W/m^2) = 1094.384842	
-0.199863	-0.000322	-40.237063
-0.189781	-0.000321	-40.164888
-0.179729	-0.000319	-39.840188
-0.169618	-0.000315	-39.388850
-0.159504	-0.000318	-39.757763
-0.149462	-0.000319	-39.819838
-0.139349	-0.000318	-39.797250
-0.129273	-0.000315	-39.378150
-0.119227	-0.000316	-39.486475
-0.109108	-0.000316	-39.461375
-0.099003	-0.000315	-39.322875
-0.088967	-0.000313	-39.089362
-0.078852	-0.000313	-39.168825
-0.068768	-0.000312	-38.968162
-0.058661	-0.000311	-38.873963
-0.048606	-0.000310	-38.710950
-0.038495	-0.000310	-38.721000
-0.028397	-0.000310	-38.750663
-0.018346	-0.000309	-38.570750
-0.008270	-0.000307	-38.359350
0.001810	-0.000309	-38.613600
0.011855	-0.000304	-38.010463
0.021926	-0.000305	-38.134812
0.032047	-0.000306	-38.261800
0.042089	-0.000303	-37.873550
0.052202	-0.000304	-37.955750
0.062293	-0.000302	-37.812000
0.072361	-0.000301	-37.574075
0.082444	-0.000298	-37.252813
0.092556	-0.000298	-37.304975
0.102602	-0.000299	-37.333250
0.112720	-0.000295	-36.858288
0.122797	-0.000295	-36.885250
0.132839	-0.000296	-36.985525
0.142949	-0.000295	-36.826738
0.153060	-0.000292	-36.451775
0.163149	-0.000292	-36.455250
0.173192	-0.000291	-36.320963
0.183303	-0.000289	-36.175675
0.193416	-0.000288	-36.018712
0.203462	-0.000286	-35.724488
0.213544	-0.000287	-35.862763
0.223652	-0.000286	-35.756075
0.233703	-0.000283	-35.401225
0.243808	-0.000283	-35.410325
0.253890	-0.000282	-35.292725
0.263960	-0.000279	-34.898688
0.274048	-0.000277	-34.648663
0.284164	-0.000273	-34.170938
0.294208	-0.000274	-34.294325
0.304316	-0.000272	-33.988700
0.314393	-0.000269	-33.581850
0.324444	-0.000269	-33.613325
0.334564	-0.000264	-33.012550
0.344670	-0.000261	-32.628875
0.354716	-0.000261	-32.640875
0.364793	-0.000258	-32.253775
0.374906	-0.000257	-32.166825
0.384948	-0.000252	-31.510962
0.395065	-0.000248	-31.050688
0.405143	-0.000246	-30.804000
0.415247	-0.000242	-30.234800
0.425301	-0.000238	-29.727213
0.435418	-0.000233	-29.186613
0.445487	-0.000229	-28.631775
0.455574	-0.000225	-28.075625
0.465645	-0.000217	-27.173863
0.475758	-0.000214	-26.711000
0.485806	-0.000206	-25.702488
0.495922	-0.000199	-24.916500
0.506007	-0.000190	-23.799475
0.516043	-0.000182	-22.735012
0.526156	-0.000173	-21.576025
0.536263	-0.000163	-20.376125
0.546315	-0.000151	-18.923750
0.556391	-0.000141	-17.588075
0.566502	-0.000128	-15.994037
0.576551	-0.000115	-14.359200
0.586658	-0.000101	-12.582750
0.596735	-8.665086E-5	-10.831358
0.606819	-6.942637E-5	-8.678296
0.616893	-5.324526E-5	-6.655658
0.627015	-3.615313E-5	-4.519141
0.637057	-1.679772E-5	-2.099715
0.647150	2.800585E-6	0.350073
0.657236	2.345558E-5	2.931948
0.667343	4.580512E-5	5.725640
0.677384	6.876713E-5	8.595891
0.687489	9.267095E-5	11.583869
0.697576	0.000119	14.861513
0.707625	0.000146	18.248425
0.717739	0.000175	21.915862
0.727852	0.000206	25.709512
0.737899	0.000238	29.710525
0.747971	0.000272	33.965238
0.758087	0.000308	38.486525
0.768134	0.000346	43.235287
0.778253	0.000386	48.271663
0.788356	0.000429	53.591275
0.798407	0.000473	59.133200
0.808473	0.000520	64.981825
0.818588	0.000569	71.096563
0.828637	0.000620	77.502100
0.838750	0.000674	84.267400
0.848823	0.000730	91.199050
0.858863	0.000787	98.398600
0.868977	0.000847	105.907488
0.879093	0.000910	113.693963
0.889169	0.000973	121.650975
0.899210	0.001039	129.832125
0.909349	0.001106	138.220375
0.919457	0.001175	146.856625
0.929508	0.001245	155.614625
0.939615	0.001317	164.625125
0.949695	0.001391	173.911750
0.959746	0.001466	183.189125
0.969853	0.001541	192.676750
0.979966	0.001619	202.361875
0.990004	0.001696	212.042250
1.000088	0.001777	222.098375
