Voltage (V)	Current (A)	Current Density (A/m^2)	 Dividing Wavelength (nm) = 680  Light Power Density (W/m^2) = 1094.384842  Total Light Power Density (W/m^2) = 1094.384842	
-0.199850	-0.000913	-114.090088
-0.189771	-0.000913	-114.139613
-0.179720	-0.000907	-113.418563
-0.169607	-0.000913	-114.093300
-0.159501	-0.000910	-113.699650
-0.149452	-0.000903	-112.825100
-0.139340	-0.000906	-113.299312
-0.129270	-0.000904	-113.056962
-0.119223	-0.000903	-112.893900
-0.109108	-0.000907	-113.355550
-0.098996	-0.000906	-113.285188
-0.088951	-0.000902	-112.742200
-0.078840	-0.000900	-112.475400
-0.068765	-0.000895	-111.817563
-0.058648	-0.000889	-111.146463
-0.048604	-0.000888	-110.946200
-0.038497	-0.000893	-111.680050
-0.028389	-0.000889	-111.150875
-0.018341	-0.000885	-110.578975
-0.008261	-0.000884	-110.459963
0.001799	-0.000886	-110.776625
0.011847	-0.000876	-109.467950
0.021924	-0.000874	-109.292875
0.032036	-0.000878	-109.695475
0.042083	-0.000881	-110.066075
0.052199	-0.000872	-109.024850
0.062281	-0.000872	-109.029700
0.072354	-0.000867	-108.336888
0.082435	-0.000869	-108.596838
0.092546	-0.000867	-108.416013
0.102598	-0.000864	-108.030062
0.112709	-0.000864	-107.993188
0.122788	-0.000864	-107.952112
0.132832	-0.000860	-107.517837
0.142947	-0.000853	-106.581463
0.153056	-0.000849	-106.143500
0.163138	-0.000850	-106.269150
0.173182	-0.000846	-105.761375
0.183301	-0.000838	-104.738512
0.193412	-0.000835	-104.434575
0.203457	-0.000834	-104.252263
0.213537	-0.000827	-103.413938
0.223653	-0.000830	-103.703575
0.233695	-0.000825	-103.157500
0.243806	-0.000817	-102.120475
0.253883	-0.000818	-102.302413
0.263963	-0.000807	-100.865438
0.274042	-0.000803	-100.412400
0.284157	-0.000802	-100.193363
0.294206	-0.000796	-99.522388
0.304308	-0.000792	-98.975000
0.314390	-0.000784	-97.988013
0.324439	-0.000777	-97.177100
0.334555	-0.000764	-95.535913
0.344665	-0.000763	-95.375950
0.354711	-0.000752	-93.974963
0.364788	-0.000744	-93.056175
0.374902	-0.000733	-91.671425
0.384948	-0.000722	-90.215650
0.395064	-0.000712	-89.024175
0.405143	-0.000704	-88.034013
0.415249	-0.000691	-86.339475
0.425296	-0.000677	-84.582600
0.435411	-0.000662	-82.749313
0.445489	-0.000650	-81.308712
0.455570	-0.000634	-79.212013
0.465647	-0.000618	-77.216350
0.475761	-0.000603	-75.342175
0.485805	-0.000583	-72.901375
0.495921	-0.000562	-70.192675
0.505998	-0.000546	-68.205425
0.516039	-0.000523	-65.383375
0.526159	-0.000500	-62.546975
0.536266	-0.000477	-59.614625
0.546309	-0.000453	-56.670700
0.556385	-0.000430	-53.691188
0.566502	-0.000403	-50.378712
0.576544	-0.000378	-47.262550
0.586658	-0.000349	-43.619138
0.596736	-0.000319	-39.916875
0.606823	-0.000291	-36.350687
0.616898	-0.000261	-32.655912
0.627012	-0.000228	-28.501450
0.637053	-0.000196	-24.555400
0.647168	-0.000161	-20.177750
0.657248	-0.000125	-15.649537
0.667350	-9.097710E-5	-11.372138
0.677404	-5.126324E-5	-6.407905
0.687508	-1.519093E-5	-1.898866
0.697578	2.283133E-5	2.853916
0.707619	6.559060E-5	8.198825
0.717739	0.000108	13.492762
0.727854	0.000151	18.815262
0.737900	0.000196	24.507338
0.747976	0.000242	30.283438
0.758084	0.000290	36.224200
0.768138	0.000340	42.442213
0.778251	0.000391	48.843375
0.788361	0.000443	55.402687
0.798408	0.000497	62.128050
0.808469	0.000552	69.028137
0.818581	0.000610	76.218650
0.828633	0.000669	83.574512
0.838744	0.000729	91.063938
0.848821	0.000790	98.772238
0.858858	0.000853	106.662262
0.868971	0.000918	114.764363
0.879089	0.000984	123.011375
0.889191	0.001052	131.498750
0.899236	0.001121	140.114500
0.909354	0.001191	148.910750
0.919460	0.001263	157.855750
0.929501	0.001335	166.891000
0.939620	0.001409	176.112625
0.949697	0.001484	185.526875
0.959745	0.001560	194.982375
0.969846	0.001638	204.722500
0.979960	0.001717	214.611250
0.990001	0.001795	224.386625
1.000085	0.001876	234.508875
