Voltage (V)	Current (A)	Current Density (A/m^2)	 Dividing Wavelength (nm) = 410  Light Power Density (W/m^2) = 1094.384842  Total Light Power Density (W/m^2) = 1094.384842	
-0.199876	-1.012643E-5	-1.265804
-0.189782	-9.794629E-6	-1.224329
-0.179732	-9.573292E-6	-1.196662
-0.169622	-9.314999E-6	-1.164375
-0.159511	-9.081284E-6	-1.135161
-0.149469	-8.846095E-6	-1.105762
-0.139355	-8.573433E-6	-1.071679
-0.129277	-8.298532E-6	-1.037316
-0.119226	-8.000086E-6	-1.000011
-0.109114	-7.753439E-6	-0.969180
-0.099008	-7.493984E-6	-0.936748
-0.088967	-7.246259E-6	-0.905782
-0.078852	-7.001841E-6	-0.875230
-0.068776	-6.760692E-6	-0.845087
-0.058660	-6.532256E-6	-0.816532
-0.048610	-6.276006E-6	-0.784501
-0.038498	-6.011196E-6	-0.751399
-0.028400	-5.750700E-6	-0.718838
-0.018348	-5.557918E-6	-0.694740
-0.008263	-5.280761E-6	-0.660095
0.001811	-5.059258E-6	-0.632407
0.011860	-4.830183E-6	-0.603773
0.021937	-4.578562E-6	-0.572320
0.032050	-4.304390E-6	-0.538049
0.042093	-4.088204E-6	-0.511026
0.052209	-3.847794E-6	-0.480974
0.062293	-3.586357E-6	-0.448295
0.072370	-3.339362E-6	-0.417420
0.082443	-3.047442E-6	-0.380930
0.092558	-2.825028E-6	-0.353129
0.102607	-2.542232E-6	-0.317779
0.112720	-2.285272E-6	-0.285659
0.122801	-2.044730E-6	-0.255591
0.132840	-1.779571E-6	-0.222446
0.142957	-1.482423E-6	-0.185303
0.153064	-1.228541E-6	-0.153568
0.163166	-9.406006E-7	-0.117575
0.173195	-6.919433E-7	-0.086493
0.183306	-4.191673E-7	-0.052396
0.193418	-1.164210E-7	-0.014553
0.203473	1.717477E-7	0.021468
0.213529	4.954630E-7	0.061933
0.223633	8.156815E-7	0.101960
0.232171	1.023217E-6	0.127902
0.243795	1.425780E-6	0.178223
0.253871	1.731618E-6	0.216452
0.263950	2.004267E-6	0.250533
0.274034	2.425692E-6	0.303212
0.284146	2.758930E-6	0.344866
0.294193	3.127241E-6	0.390905
0.304298	3.606206E-6	0.450776
0.314377	3.994701E-6	0.499338
0.324425	4.381963E-6	0.547745
0.334541	4.856878E-6	0.607110
0.344649	5.362819E-6	0.670352
0.354692	5.893697E-6	0.736712
0.364760	6.356095E-6	0.794512
0.374879	7.060196E-6	0.882525
0.384920	7.822677E-6	0.977835
0.395032	8.527386E-6	1.065923
0.405111	9.360944E-6	1.170118
0.415103	1.021828E-5	1.277285
0.425285	1.123445E-5	1.404306
0.435401	1.239525E-5	1.549406
0.445479	1.354043E-5	1.692554
0.455560	1.496316E-5	1.870395
0.465637	1.654030E-5	2.067538
0.475753	1.835637E-5	2.294546
0.485798	2.028700E-5	2.535875
0.495919	2.245372E-5	2.806715
0.505993	2.483397E-5	3.104246
0.516038	2.760504E-5	3.450630
0.526142	3.070619E-5	3.838274
0.536253	3.413094E-5	4.266368
0.546302	3.797035E-5	4.746294
0.556381	4.226649E-5	5.283311
0.566490	4.709521E-5	5.886901
0.576532	5.251049E-5	6.563811
0.586641	5.853720E-5	7.317150
0.596718	6.533472E-5	8.166840
0.606803	7.309589E-5	9.136986
0.616882	8.191767E-5	10.239709
0.626987	9.199924E-5	11.499905
0.636808	0.000103	12.864963
0.647160	0.000116	14.525525
0.657244	0.000131	16.355687
0.667355	0.000148	18.487913
0.677402	0.000168	20.945087
0.687513	0.000191	23.813212
0.697590	0.000217	27.138800
0.707640	0.000248	31.030725
0.717751	0.000285	35.622175
0.727866	0.000328	41.014825
0.737912	0.000379	47.316775
0.747986	0.000438	54.768775
0.758100	0.000509	63.597037
0.768147	0.000592	73.938963
0.778257	0.000689	86.108925
0.788364	0.000803	100.351688
0.798418	0.000934	116.721075
0.808522	0.001083	135.414000
0.818635	0.001256	156.968750
0.828688	0.001449	181.085750
0.838802	0.001665	208.149750
0.848885	0.001903	237.896625
0.858931	0.002162	270.243125
0.869045	0.002444	305.496625
0.879167	0.002747	343.321000
0.889242	0.003067	383.402625
0.899282	0.003405	425.571625
0.909400	0.003761	470.164125
0.919503	0.004134	516.688875
0.929544	0.004518	564.759000
0.939661	0.004919	614.842125
0.949737	0.005330	666.298375
0.959787	0.005752	719.034250
0.969892	0.006187	773.373875
0.980001	0.006632	828.999750
0.990044	0.007083	885.339875
1.000131	0.007544	942.993000
