Voltage (V)	Current (A)	Current Density (A/m^2)	 Dividing Wavelength (nm) = 540  Light Power Density (W/m^2) = 1094.384842  Total Light Power Density (W/m^2) = 1094.384842	
-0.199875	-0.000312	-39.001300
-0.189792	-0.000309	-38.575575
-0.179746	-0.000310	-38.765325
-0.169629	-0.000312	-38.950113
-0.159519	-0.000312	-38.946550
-0.149471	-0.000312	-38.946638
-0.139363	-0.000309	-38.579500
-0.129285	-0.000308	-38.439100
-0.119233	-0.000305	-38.143050
-0.109122	-0.000305	-38.124088
-0.099014	-0.000305	-38.094163
-0.088967	-0.000304	-37.982775
-0.078860	-0.000306	-38.248113
-0.068778	-0.000304	-37.981825
-0.058662	-0.000303	-37.884725
-0.048611	-0.000302	-37.781987
-0.038508	-0.000302	-37.689737
-0.028401	-0.000301	-37.638100
-0.018350	-0.000302	-37.708213
-0.008271	-0.000300	-37.535300
0.001805	-0.000298	-37.299975
0.011855	-0.000297	-37.168213
0.021928	-0.000296	-37.023800
0.032040	-0.000297	-37.134638
0.042086	-0.000296	-36.982588
0.052202	-0.000295	-36.831625
0.062292	-0.000295	-36.849550
0.072359	-0.000294	-36.783413
0.082440	-0.000292	-36.515300
0.092554	-0.000292	-36.530075
0.102603	-0.000291	-36.404775
0.112716	-0.000291	-36.344888
0.122793	-0.000293	-36.614312
0.132840	-0.000291	-36.394337
0.142946	-0.000288	-35.972175
0.153062	-0.000290	-36.261513
0.163145	-0.000288	-35.950763
0.173186	-0.000291	-36.379512
0.183305	-0.000286	-35.718112
0.193411	-0.000285	-35.642125
0.203460	-0.000284	-35.485388
0.213544	-0.000283	-35.418537
0.223651	-0.000281	-35.156450
0.233702	-0.000280	-34.962525
0.243807	-0.000282	-35.231025
0.253887	-0.000278	-34.740225
0.263964	-0.000277	-34.645950
0.274047	-0.000277	-34.622638
0.284161	-0.000276	-34.465238
0.294211	-0.000274	-34.218350
0.304315	-0.000274	-34.258238
0.314396	-0.000272	-34.019875
0.324447	-0.000271	-33.904200
0.334556	-0.000268	-33.491400
0.344667	-0.000264	-33.042138
0.354712	-0.000262	-32.754325
0.364796	-0.000262	-32.688238
0.374904	-0.000258	-32.268662
0.384952	-0.000258	-32.254825
0.395070	-0.000255	-31.888813
0.405139	-0.000252	-31.473700
0.415249	-0.000247	-30.896825
0.425298	-0.000244	-30.462350
0.435414	-0.000240	-29.998475
0.445494	-0.000235	-29.415450
0.455572	-0.000232	-28.953000
0.465650	-0.000225	-28.071325
0.475756	-0.000217	-27.169412
0.485810	-0.000212	-26.470838
0.495925	-0.000204	-25.507700
0.506008	-0.000197	-24.599863
0.516045	-0.000188	-23.468113
0.526161	-0.000179	-22.342800
0.536265	-0.000168	-20.953700
0.546318	-0.000153	-19.117513
0.556394	-0.000140	-17.489700
0.566504	-0.000125	-15.568300
0.576551	-0.000109	-13.574550
0.586665	-8.952645E-5	-11.190806
0.596746	-6.950595E-5	-8.688244
0.606827	-4.445744E-5	-5.557180
0.616900	-1.855100E-5	-2.318875
0.626801	7.260564E-6	0.907571
0.637030	3.782608E-5	4.728260
0.647132	7.112324E-5	8.890405
0.657234	0.000109	13.661038
0.667342	0.000149	18.668550
0.677394	0.000195	24.368675
0.687493	0.000245	30.602400
0.697577	0.000299	37.435138
0.707627	0.000359	44.911850
0.717735	0.000427	53.349450
0.727848	0.000500	62.521063
0.737897	0.000583	72.828738
0.747968	0.000674	84.190300
0.758077	0.000775	96.854025
0.768126	0.000887	110.871388
0.778235	0.001013	126.574625
0.788392	0.001152	143.966375
0.798435	0.001305	163.179625
0.808508	0.001476	184.548750
0.818622	0.001665	208.174000
0.828677	0.001870	233.737125
0.838786	0.002097	262.079250
0.848868	0.002340	292.478500
0.858913	0.002602	325.224625
0.869031	0.002884	360.526750
0.879151	0.003184	398.013750
0.889223	0.003501	437.606625
0.899265	0.003832	479.016625
0.909383	0.004182	522.767750
0.919489	0.004547	568.347750
0.929528	0.004922	615.264875
0.939643	0.005314	664.263500
0.949724	0.005716	714.483000
0.959774	0.006129	766.090500
0.969876	0.006552	819.050125
0.979988	0.006988	873.514250
0.990032	0.007429	928.567500
1.000112	0.007880	984.953125
