Voltage (V)	Current (A)	Current Density (A/m^2)	 Dividing Wavelength (nm) = 690  Light Power Density (W/m^2) = 1094.384842  Total Light Power Density (W/m^2) = 1094.384842	
-0.199905	-0.001033	-129.166250
-0.189821	-0.001030	-128.722375
-0.179773	-0.001032	-129.009125
-0.169654	-0.001025	-128.174500
-0.159539	-0.001034	-129.251125
-0.149496	-0.001024	-127.958625
-0.139384	-0.001030	-128.796500
-0.129311	-0.001027	-128.400000
-0.119261	-0.001025	-128.114500
-0.109149	-0.001021	-127.674000
-0.099038	-0.001025	-128.112125
-0.088996	-0.001013	-126.568125
-0.078889	-0.001018	-127.277125
-0.068806	-0.001012	-126.484750
-0.058689	-0.001015	-126.930625
-0.048638	-0.001007	-125.888000
-0.038527	-0.001020	-127.481750
-0.028426	-0.001007	-125.833250
-0.018376	-0.001011	-126.403125
-0.008297	-0.001012	-126.553000
0.001785	-0.001004	-125.554750
0.011828	-0.001002	-125.210750
0.021904	-0.001000	-125.029875
0.032017	-0.001007	-125.890500
0.042059	-0.001002	-125.298000
0.052177	-0.001002	-125.245625
0.062257	-0.001002	-125.241875
0.072334	-0.000998	-124.717637
0.082411	-0.001002	-125.200375
0.092525	-0.001002	-125.207750
0.102573	-0.000994	-124.251050
0.112690	-0.000991	-123.890250
0.122763	-0.000990	-123.771675
0.132811	-0.000982	-122.771587
0.142923	-0.000979	-122.338775
0.153037	-0.000980	-122.469888
0.163118	-0.000970	-121.268475
0.173165	-0.000977	-122.120225
0.183280	-0.000974	-121.715037
0.193387	-0.000968	-121.009250
0.203435	-0.000964	-120.476525
0.213516	-0.000974	-121.810725
0.223632	-0.000967	-120.857100
0.233678	-0.000963	-120.381613
0.243783	-0.000955	-119.354275
0.253861	-0.000962	-120.241687
0.263940	-0.000954	-119.288225
0.274023	-0.000942	-117.803562
0.284136	-0.000938	-117.231725
0.294184	-0.000935	-116.897088
0.304292	-0.000933	-116.682100
0.314369	-0.000925	-115.626475
0.324423	-0.000919	-114.868100
0.334536	-0.000919	-114.915413
0.344645	-0.000915	-114.402725
0.354688	-0.000906	-113.199512
0.364773	-0.000890	-111.234238
0.374883	-0.000891	-111.426425
0.384930	-0.000878	-109.733987
0.395042	-0.000873	-109.172313
0.405122	-0.000867	-108.385025
0.415228	-0.000858	-107.217512
0.425276	-0.000841	-105.162388
0.435395	-0.000834	-104.271600
0.445472	-0.000817	-102.186700
0.455552	-0.000807	-100.885850
0.465629	-0.000788	-98.500625
0.475748	-0.000776	-96.980863
0.485793	-0.000756	-94.464175
0.495910	-0.000742	-92.712350
0.505986	-0.000721	-90.168000
0.516033	-0.000702	-87.741550
0.526141	-0.000673	-84.186225
0.536250	-0.000654	-81.787275
0.546299	-0.000625	-78.071100
0.556379	-0.000596	-74.473038
0.566491	-0.000573	-71.610537
0.576532	-0.000541	-67.609625
0.586643	-0.000511	-63.856613
0.596724	-0.000475	-59.336025
0.606810	-0.000439	-54.919325
0.616892	-0.000398	-49.729800
0.627003	-0.000361	-45.168563
0.637038	-0.000320	-40.056362
0.647157	-0.000281	-35.101575
0.657241	-0.000232	-29.028913
0.667343	-0.000185	-23.179875
0.677396	-0.000134	-16.741687
0.687514	-8.176957E-5	-10.221196
0.697581	-2.408634E-5	-3.010792
0.707614	3.658688E-5	4.573360
0.717722	0.000103	12.899038
0.727840	0.000173	21.631462
0.737882	0.000248	31.048200
0.747965	0.000331	41.327813
0.758073	0.000420	52.534738
0.768116	0.000518	64.788287
0.778234	0.000625	78.174463
0.788342	0.000743	92.812962
0.798394	0.000869	108.664613
0.808456	0.001007	125.911750
0.818603	0.001157	144.588250
0.828659	0.001319	164.869000
0.838765	0.001492	186.475125
0.848847	0.001676	209.484875
0.858895	0.001873	234.082500
0.869007	0.002084	260.461500
0.879129	0.002302	287.720750
0.889207	0.002532	316.508375
0.899250	0.002770	346.237250
0.909368	0.003019	377.408000
0.919472	0.003281	410.106625
0.929520	0.003546	443.254500
0.939639	0.003825	478.166625
0.949706	0.004106	513.283000
0.959759	0.004395	549.365375
0.969860	0.004696	586.944625
0.979972	0.004998	624.776625
0.990015	0.005311	663.869500
1.000089	0.005627	703.335125
