Voltage (V)	Current (A)	Current Density (A/m^2)	 Dividing Wavelength (nm) = 580  Light Power Density (W/m^2) = 1053.797256  Total Light Power Density (W/m^2) = 1053.797256	
-0.199976	-0.000455	-56.930638
-0.187892	-0.000459	-57.409312
-0.175740	-0.000462	-57.768712
-0.163633	-0.000456	-57.017300
-0.151479	-0.000460	-57.512862
-0.139371	-0.000458	-57.207600
-0.127218	-0.000453	-56.583450
-0.115137	-0.000454	-56.762425
-0.103029	-0.000451	-56.407400
-0.090878	-0.000453	-56.671238
-0.078771	-0.000454	-56.705388
-0.066622	-0.000452	-56.552725
-0.054542	-0.000454	-56.696750
-0.042391	-0.000451	-56.400225
-0.030277	-0.000451	-56.400300
-0.018166	-0.000451	-56.389188
-0.006013	-0.000451	-56.416613
0.006046	-0.000449	-56.152700
0.018199	-0.000454	-56.699675
0.030311	-0.000449	-56.159562
0.042396	-0.000450	-56.230725
0.054547	-0.000448	-55.958063
0.066660	-0.000449	-56.113262
0.078811	-0.000449	-56.133212
0.090888	-0.000448	-55.991525
0.103039	-0.000451	-56.346800
0.115150	-0.000447	-55.928775
0.127266	-0.000445	-55.599738
0.139420	-0.000446	-55.728412
0.151496	-0.000441	-55.169450
0.163649	-0.000445	-55.584575
0.175757	-0.000441	-55.119712
0.187913	-0.000444	-55.443000
0.199997	-0.000442	-55.187850
0.212106	-0.000440	-55.000475
0.224259	-0.000435	-54.407625
0.236370	-0.000437	-54.643313
0.248519	-0.000437	-54.603650
0.260595	-0.000437	-54.572938
0.272745	-0.000437	-54.578113
0.284862	-0.000431	-53.861475
0.296941	-0.000432	-53.951613
0.309091	-0.000433	-54.089975
0.321200	-0.000429	-53.673088
0.333358	-0.000433	-54.143475
0.345472	-0.000430	-53.797863
0.357615	-0.000426	-53.225100
0.369702	-0.000423	-52.855863
0.381811	-0.000422	-52.697200
0.393960	-0.000418	-52.301663
0.406039	-0.000421	-52.626525
0.418193	-0.000417	-52.175100
0.430304	-0.000415	-51.880100
0.442417	-0.000411	-51.430600
0.454566	-0.000409	-51.149975
0.466647	-0.000405	-50.583263
0.478800	-0.000404	-50.471400
0.490907	-0.000402	-50.189038
0.503057	-0.000397	-49.678488
0.515139	-0.000394	-49.266463
0.527252	-0.000390	-48.769450
0.539402	-0.000381	-47.588912
0.551508	-0.000382	-47.743138
0.563663	-0.000376	-46.970238
0.575744	-0.000372	-46.461750
0.587886	-0.000366	-45.705875
0.600010	-0.000358	-44.797438
0.612085	-0.000348	-43.532425
0.624237	-0.000345	-43.070312
0.636346	-0.000335	-41.896675
0.648496	-0.000324	-40.544562
0.660614	-0.000313	-39.105775
0.672752	-0.000300	-37.561000
0.684835	-0.000286	-35.729913
0.696944	-0.000271	-33.852962
0.709097	-0.000247	-30.864713
0.721176	-0.000220	-27.465163
0.733355	-0.000186	-23.294750
0.745440	-0.000148	-18.529625
0.757608	-0.000101	-12.571112
0.769707	-3.737417E-5	-4.671771
0.781764	3.751912E-5	4.689890
0.793918	0.000128	15.949400
0.806028	0.000233	29.069337
0.818170	0.000358	44.688187
0.830251	0.000502	62.694113
0.842353	0.000662	82.733900
0.854499	0.000841	105.139862
0.866614	0.001037	129.571625
0.878783	0.001248	156.051625
0.890867	0.001473	184.106125
0.903015	0.001712	213.949750
0.915125	0.001961	245.183500
0.927199	0.002221	277.672000
0.939388	0.002493	311.585500
0.951465	0.002770	346.210375
0.963609	0.003057	382.115750
0.975724	0.003349	418.645125
0.987866	0.003649	456.072125
0.999950	0.003951	493.907625
