Wavelength (nm)	EQE (%)	Current (A)	Dark Current (A) -> 	-179.894126000E-12	
400.000000	54.259626	-1.174448E-6
401.000000	57.218762	-1.714062E-6
402.000000	56.661601	-2.578730E-6
403.000000	57.574868	-3.895461E-6
404.000000	58.005616	-5.270390E-6
405.000000	57.971019	-7.036948E-6
406.000000	58.135792	-9.681385E-6
407.000000	57.226948	-1.035818E-5
408.000000	57.851063	-1.138784E-5
409.000000	57.632216	-1.268260E-5
410.000000	58.531609	-1.291919E-5
411.000000	58.821392	-1.723703E-5
412.000000	59.306989	-2.022265E-5
413.000000	59.380391	-2.628736E-5
414.000000	58.922240	-3.037865E-5
415.000000	58.703453	-3.019231E-5
416.000000	58.750876	-2.883910E-5
417.000000	58.587965	-2.573269E-5
418.000000	57.257338	-1.710843E-5
419.000000	58.313500	-1.270173E-5
420.000000	58.537417	-1.299751E-5
421.000000	58.361707	-1.412731E-5
422.000000	58.273665	-1.277777E-5
423.000000	59.328128	-1.352674E-5
424.000000	58.967917	-1.500070E-5
425.000000	58.936516	-1.618783E-5
426.000000	58.897445	-1.719444E-5
427.000000	59.301303	-1.801562E-5
428.000000	59.917266	-2.001267E-5
429.000000	60.019067	-2.236767E-5
430.000000	58.823609	-2.378777E-5
431.000000	58.984312	-2.428673E-5
432.000000	59.341853	-2.415360E-5
433.000000	59.852290	-2.476329E-5
434.000000	59.100929	-2.739651E-5
435.000000	58.759999	-2.781091E-5
436.000000	58.302423	-2.778478E-5
437.000000	59.508686	-3.057418E-5
438.000000	58.701386	-3.140995E-5
439.000000	58.609459	-3.083370E-5
440.000000	58.759187	-3.064610E-5
441.000000	59.034269	-3.380287E-5
442.000000	58.070713	-3.246580E-5
443.000000	57.954386	-3.100497E-5
444.000000	58.978890	-3.112913E-5
445.000000	58.627988	-3.076471E-5
446.000000	58.432720	-2.981703E-5
447.000000	59.096174	-3.371231E-5
448.000000	59.004787	-3.798576E-5
449.000000	58.468668	-3.507749E-5
450.000000	58.755792	-3.263081E-5
451.000000	58.825580	-3.578938E-5
452.000000	58.613691	-3.761215E-5
453.000000	58.727259	-3.491210E-5
454.000000	58.968313	-3.072020E-5
455.000000	59.001820	-3.230320E-5
456.000000	59.289651	-3.806144E-5
457.000000	59.418393	-4.218274E-5
458.000000	59.067779	-4.275572E-5
459.000000	58.329668	-3.993698E-5
460.000000	58.547602	-3.737198E-5
461.000000	58.538885	-3.509012E-5
462.000000	58.868785	-3.445413E-5
463.000000	58.671507	-3.450072E-5
464.000000	58.249025	-3.416696E-5
465.000000	58.969019	-3.495260E-5
466.000000	58.085407	-3.227027E-5
467.000000	57.866823	-2.607395E-5
468.000000	59.240804	-2.593500E-5
469.000000	59.570989	-3.378068E-5
470.000000	58.055010	-3.498355E-5
471.000000	57.446956	-2.644902E-5
472.000000	59.359293	-2.532304E-5
473.000000	59.982623	-3.519447E-5
474.000000	58.791909	-3.591543E-5
475.000000	58.043478	-2.745978E-5
476.000000	58.905003	-2.589401E-5
477.000000	59.497613	-3.088574E-5
478.000000	58.828821	-2.868143E-5
479.000000	59.834287	-2.820768E-5
480.000000	60.029293	-3.371770E-5
481.000000	59.187856	-3.287587E-5
482.000000	58.351134	-2.359072E-5
483.000000	60.329589	-2.481964E-5
484.000000	59.594450	-3.122862E-5
485.000000	58.915308	-2.613199E-5
486.000000	60.595677	-2.378465E-5
487.000000	60.745899	-2.837372E-5
488.000000	59.649824	-2.778038E-5
489.000000	59.761951	-2.359016E-5
490.000000	60.698668	-2.663428E-5
491.000000	61.503866	-2.993180E-5
492.000000	60.684650	-3.257981E-5
493.000000	60.419562	-3.453018E-5
494.000000	58.621177	-3.052800E-5
495.000000	60.620018	-3.061299E-5
496.000000	60.112580	-3.480505E-5
497.000000	60.404871	-3.750246E-5
498.000000	60.830361	-3.470432E-5
499.000000	60.078366	-3.312758E-5
500.000000	61.689809	-3.782162E-5
501.000000	60.892509	-4.478571E-5
502.000000	59.975799	-4.227549E-5
503.000000	60.279564	-3.935551E-5
504.000000	59.512279	-4.693884E-5
505.000000	60.224042	-5.276085E-5
506.000000	59.571856	-4.838765E-5
507.000000	59.301667	-3.865841E-5
508.000000	60.600696	-3.864716E-5
509.000000	59.654593	-3.897099E-5
510.000000	59.445295	-3.397022E-5
511.000000	59.810666	-3.035744E-5
512.000000	61.011728	-3.450297E-5
513.000000	61.681408	-3.983053E-5
514.000000	60.168974	-4.804107E-5
515.000000	61.421721	-5.612073E-5
516.000000	61.291806	-7.132938E-5
517.000000	60.830839	-8.492452E-5
518.000000	60.108867	-7.240077E-5
519.000000	59.932543	-5.878418E-5
520.000000	60.422311	-5.622358E-5
521.000000	59.680011	-4.266017E-5
522.000000	59.770636	-3.371036E-5
523.000000	61.178255	-3.153798E-5
524.000000	63.994254	-4.328283E-5
525.000000	62.525213	-5.921999E-5
526.000000	61.452303	-6.487216E-5
527.000000	62.710777	-7.159876E-5
528.000000	61.845769	-8.018446E-5
529.000000	61.349047	-7.616950E-5
530.000000	61.038097	-5.717483E-5
531.000000	59.912804	-4.219454E-5
532.000000	61.893933	-3.464307E-5
533.000000	62.052753	-3.668599E-5
534.000000	62.777825	-4.028400E-5
535.000000	64.481560	-5.191135E-5
536.000000	63.825259	-7.423155E-5
537.000000	61.999128	-7.268835E-5
538.000000	61.978316	-5.442446E-5
539.000000	62.831697	-5.427076E-5
540.000000	61.798419	-4.428936E-5
541.000000	62.698395	-3.914200E-5
542.000000	62.986215	-4.093988E-5
543.000000	63.582135	-4.833214E-5
544.000000	63.356287	-6.597688E-5
545.000000	62.630998	-7.055746E-5
546.000000	62.328561	-6.276692E-5
547.000000	63.282542	-6.358472E-5
548.000000	62.743369	-5.078830E-5
549.000000	62.911284	-3.709684E-5
550.000000	63.768701	-3.718466E-5
551.000000	64.151660	-4.128342E-5
552.000000	65.341753	-5.610167E-5
553.000000	64.027763	-6.810856E-5
554.000000	63.346241	-6.985896E-5
555.000000	63.284023	-7.079277E-5
556.000000	62.522796	-6.152269E-5
557.000000	62.556188	-4.828114E-5
558.000000	64.124414	-4.668767E-5
559.000000	64.383900	-5.179562E-5
560.000000	65.159284	-6.285769E-5
561.000000	63.221640	-7.295324E-5
562.000000	63.552982	-6.607070E-5
563.000000	63.638620	-6.530924E-5
564.000000	63.439970	-5.549733E-5
565.000000	63.046359	-4.280704E-5
566.000000	63.928685	-4.309586E-5
567.000000	64.495466	-4.627499E-5
568.000000	64.577860	-5.584200E-5
569.000000	63.604154	-6.363770E-5
570.000000	63.423595	-6.006730E-5
571.000000	63.827462	-5.640358E-5
572.000000	63.581899	-5.092501E-5
573.000000	63.467618	-4.145920E-5
574.000000	64.521173	-4.257041E-5
575.000000	64.761720	-4.981642E-5
576.000000	64.764792	-6.391697E-5
577.000000	63.874093	-7.035227E-5
578.000000	63.244994	-7.327175E-5
579.000000	63.105536	-6.808739E-5
580.000000	63.439589	-5.610115E-5
581.000000	63.764165	-5.065912E-5
582.000000	63.411419	-4.793310E-5
583.000000	64.081701	-5.368113E-5
584.000000	64.391094	-6.474119E-5
585.000000	63.270789	-6.766945E-5
586.000000	63.131037	-6.460705E-5
587.000000	62.730446	-6.057604E-5
588.000000	62.865289	-5.090936E-5
589.000000	63.155475	-4.885519E-5
590.000000	62.805024	-5.037939E-5
591.000000	63.729307	-7.331770E-5
592.000000	63.521142	-7.366698E-5
593.000000	64.176811	-7.411468E-5
594.000000	63.869590	-7.064173E-5
595.000000	63.443762	-6.849576E-5
596.000000	63.496730	-6.921218E-5
597.000000	63.316138	-7.128771E-5
598.000000	62.911565	-7.730775E-5
599.000000	62.687264	-8.221621E-5
600.000000	62.628394	-8.556260E-5
601.000000	62.326377	-8.829356E-5
602.000000	62.102107	-8.736154E-5
603.000000	62.285388	-8.555804E-5
604.000000	62.306718	-8.038086E-5
605.000000	62.667346	-7.705263E-5
606.000000	62.499855	-7.770197E-5
607.000000	62.551790	-7.889016E-5
608.000000	62.077797	-8.568281E-5
609.000000	61.957904	-9.236026E-5
610.000000	61.695179	-9.635703E-5
611.000000	61.859573	-9.978845E-5
612.000000	61.939671	-9.847635E-5
613.000000	61.871157	-9.435300E-5
614.000000	62.372965	-8.863420E-5
615.000000	62.209800	-8.368935E-5
616.000000	62.382365	-8.417737E-5
617.000000	61.990697	-8.794777E-5
618.000000	62.307848	-9.678892E-5
619.000000	62.307178	-0.000103
620.000000	62.542348	-0.000106
621.000000	62.486378	-0.000109
622.000000	62.439450	-0.000111
623.000000	62.187326	-0.000113
624.000000	62.468603	-0.000117
625.000000	58.449797	-0.000116
626.000000	61.615316	-0.000115
627.000000	60.177299	-0.000113
628.000000	59.987881	-0.000112
629.000000	60.736633	-0.000113
630.000000	60.672082	-0.000115
631.000000	60.812708	-0.000120
632.000000	60.795838	-0.000125
633.000000	60.323976	-0.000129
634.000000	60.817453	-0.000133
635.000000	60.783232	-0.000132
636.000000	60.943777	-0.000131
637.000000	61.188778	-0.000131
638.000000	60.711424	-0.000130
639.000000	60.909340	-0.000132
640.000000	60.956758	-0.000129
641.000000	60.845141	-0.000127
642.000000	60.899991	-0.000127
643.000000	60.804767	-0.000127
644.000000	60.725874	-0.000134
645.000000	60.989746	-0.000141
646.000000	60.854556	-0.000145
647.000000	60.624164	-0.000144
648.000000	60.480775	-0.000137
649.000000	60.910138	-0.000134
650.000000	61.088832	-0.000130
651.000000	60.265650	-0.000131
652.000000	60.476002	-0.000139
653.000000	60.625156	-0.000144
654.000000	59.937322	-0.000146
655.000000	60.512056	-0.000142
656.000000	60.428513	-0.000135
657.000000	60.561595	-0.000133
658.000000	60.543846	-0.000131
659.000000	60.328556	-0.000137
660.000000	60.145435	-0.000149
661.000000	60.289618	-0.000155
662.000000	60.154972	-0.000157
663.000000	60.516850	-0.000149
664.000000	60.431314	-0.000134
665.000000	60.116734	-0.000127
666.000000	59.948157	-0.000130
667.000000	60.297662	-0.000141
668.000000	60.004600	-0.000152
669.000000	59.452623	-0.000159
670.000000	59.567999	-0.000155
671.000000	59.659438	-0.000142
672.000000	59.391085	-0.000138
673.000000	59.702513	-0.000136
674.000000	59.276976	-0.000136
675.000000	59.505476	-0.000149
676.000000	59.378291	-0.000154
677.000000	59.704313	-0.000153
678.000000	59.495964	-0.000153
679.000000	59.404371	-0.000142
680.000000	59.636180	-0.000135
681.000000	59.732385	-0.000141
682.000000	59.701593	-0.000151
683.000000	59.232811	-0.000155
684.000000	59.477343	-0.000159
685.000000	59.745619	-0.000156
686.000000	59.434404	-0.000140
687.000000	59.770678	-0.000136
688.000000	60.026215	-0.000147
689.000000	59.791197	-0.000152
690.000000	59.579154	-0.000159
691.000000	60.349616	-0.000164
692.000000	60.394894	-0.000156
693.000000	60.956504	-0.000147
694.000000	60.817743	-0.000139
695.000000	60.478478	-0.000139
696.000000	60.671219	-0.000147
697.000000	60.348279	-0.000157
698.000000	60.525562	-0.000164
699.000000	60.543265	-0.000159
700.000000	60.921504	-0.000154
701.000000	60.589019	-0.000150
702.000000	61.048466	-0.000143
703.000000	61.045667	-0.000148
704.000000	61.271270	-0.000164
705.000000	61.279406	-0.000167
706.000000	61.515888	-0.000161
707.000000	61.287447	-0.000159
708.000000	61.519925	-0.000156
709.000000	61.607783	-0.000142
710.000000	60.986604	-0.000143
711.000000	60.778396	-0.000167
712.000000	61.174280	-0.000179
713.000000	61.417527	-0.000168
714.000000	61.681151	-0.000155
715.000000	61.811970	-0.000143
716.000000	61.689627	-0.000144
717.000000	61.511026	-0.000148
718.000000	61.727052	-0.000157
719.000000	61.129343	-0.000165
720.000000	61.223662	-0.000165
721.000000	61.541411	-0.000164
722.000000	61.334971	-0.000156
723.000000	61.449594	-0.000147
724.000000	61.173018	-0.000147
725.000000	61.253923	-0.000155
726.000000	61.099377	-0.000160
727.000000	60.907564	-0.000165
728.000000	61.192380	-0.000162
729.000000	60.711712	-0.000154
730.000000	60.290600	-0.000146
731.000000	60.494095	-0.000143
732.000000	60.044558	-0.000145
733.000000	59.608433	-0.000151
734.000000	59.157260	-0.000158
735.000000	59.062367	-0.000155
736.000000	58.784011	-0.000150
737.000000	58.060522	-0.000145
738.000000	57.817778	-0.000140
739.000000	57.245896	-0.000138
740.000000	56.691560	-0.000139
741.000000	56.240578	-0.000141
742.000000	55.494462	-0.000143
743.000000	54.826397	-0.000138
744.000000	54.233208	-0.000130
745.000000	53.679447	-0.000126
746.000000	52.870618	-0.000121
747.000000	51.835613	-0.000119
748.000000	51.079902	-0.000121
749.000000	50.208703	-0.000120
750.000000	49.086397	-0.000117
751.000000	48.120255	-0.000112
752.000000	47.130411	-0.000105
753.000000	45.766667	-9.897097E-5
754.000000	44.561514	-9.452879E-5
755.000000	43.107037	-9.263115E-5
756.000000	42.079063	-9.229318E-5
757.000000	40.788340	-8.930226E-5
758.000000	39.228767	-8.456293E-5
759.000000	37.971487	-8.019368E-5
760.000000	36.711946	-7.447632E-5
761.000000	35.106426	-6.892769E-5
762.000000	33.513782	-6.565386E-5
763.000000	32.108162	-6.380509E-5
764.000000	30.818003	-6.226791E-5
765.000000	29.398139	-5.924917E-5
766.000000	27.999897	-5.520698E-5
767.000000	26.695665	-5.138375E-5
768.000000	25.327831	-4.729177E-5
769.000000	23.950351	-4.393289E-5
770.000000	22.648049	-4.178068E-5
771.000000	21.388828	-4.003455E-5
772.000000	20.227447	-3.828004E-5
773.000000	19.087638	-3.583104E-5
774.000000	18.034288	-3.293756E-5
775.000000	16.945502	-2.975488E-5
776.000000	15.959589	-2.717426E-5
777.000000	14.981961	-2.559589E-5
778.000000	14.059133	-2.471876E-5
779.000000	13.242047	-2.394367E-5
780.000000	12.464575	-2.274907E-5
781.000000	11.748706	-2.090315E-5
782.000000	11.048531	-1.890444E-5
783.000000	10.394042	-1.719304E-5
784.000000	9.730531	-1.600321E-5
785.000000	9.140623	-1.546232E-5
786.000000	8.643844	-1.483623E-5
787.000000	8.124308	-1.404862E-5
788.000000	7.701840	-1.313598E-5
789.000000	7.290465	-1.191738E-5
790.000000	6.845555	-1.083256E-5
791.000000	6.479276	-1.007018E-5
792.000000	6.089608	-9.652410E-6
793.000000	5.741176	-9.436842E-6
794.000000	5.417447	-9.286426E-6
795.000000	5.171276	-8.952616E-6
796.000000	4.921292	-8.166170E-6
797.000000	4.636143	-7.425122E-6
798.000000	4.385494	-6.965020E-6
799.000000	4.148048	-6.686601E-6
800.000000	3.931869	-6.603272E-6
801.000000	3.736181	-6.566764E-6
802.000000	3.563391	-6.338509E-6
803.000000	3.398136	-5.873879E-6
804.000000	3.246503	-5.326053E-6
805.000000	3.076644	-4.869299E-6
806.000000	2.924831	-4.603237E-6
807.000000	2.792495	-4.527391E-6
808.000000	2.672429	-4.564844E-6
809.000000	2.557342	-4.444859E-6
810.000000	2.447746	-4.136436E-6
811.000000	2.333510	-3.824112E-6
812.000000	2.238406	-3.467783E-6
813.000000	2.127780	-3.199265E-6
814.000000	2.031972	-3.144015E-6
815.000000	1.938557	-3.124730E-6
816.000000	1.855338	-3.131853E-6
817.000000	1.787237	-3.017667E-6
818.000000	1.711841	-2.726269E-6
819.000000	1.639554	-2.469870E-6
820.000000	1.574765	-2.300965E-6
821.000000	1.506601	-2.218303E-6
822.000000	1.439693	-2.237281E-6
823.000000	1.375072	-2.259504E-6
824.000000	1.328342	-2.212534E-6
825.000000	1.277057	-2.081414E-6
826.000000	1.225026	-1.898046E-6
827.000000	1.176861	-1.766990E-6
828.000000	1.130495	-1.713844E-6
829.000000	1.089032	-1.683009E-6
830.000000	1.039370	-1.671093E-6
831.000000	0.998526	-1.651560E-6
832.000000	0.961197	-1.571095E-6
833.000000	0.925214	-1.455259E-6
834.000000	0.888969	-1.331083E-6
835.000000	0.852453	-1.236002E-6
836.000000	0.817000	-1.204530E-6
837.000000	0.787699	-1.201439E-6
838.000000	0.753862	-1.178369E-6
839.000000	0.723885	-1.141392E-6
840.000000	0.694700	-1.078685E-6
841.000000	0.674370	-1.001665E-6
842.000000	0.645325	-9.348286E-7
843.000000	0.618689	-9.088324E-7
844.000000	0.597636	-8.970047E-7
845.000000	0.572839	-8.775599E-7
846.000000	0.551084	-8.490358E-7
847.000000	0.532358	-8.072003E-7
848.000000	0.512938	-7.461033E-7
849.000000	0.491683	-6.853047E-7
850.000000	0.471767	-6.580852E-7
851.000000	0.453918	-6.426798E-7
852.000000	0.435611	-6.230276E-7
853.000000	0.417728	-6.061861E-7
854.000000	0.403075	-5.754142E-7
855.000000	0.386046	-5.311549E-7
856.000000	0.372775	-4.969335E-7
857.000000	0.359504	-4.678775E-7
858.000000	0.344213	-4.510758E-7
859.000000	0.328995	-4.396266E-7
860.000000	0.316657	-4.193297E-7
861.000000	0.304484	-3.908285E-7
862.000000	0.293272	-3.599683E-7
863.000000	0.282103	-3.304179E-7
864.000000	0.270856	-3.114480E-7
865.000000	0.260969	-2.981935E-7
866.000000	0.250952	-2.825333E-7
867.000000	0.239242	-2.709938E-7
868.000000	0.230837	-2.552838E-7
869.000000	0.221986	-2.336025E-7
870.000000	0.214072	-2.183789E-7
871.000000	0.205021	-2.048738E-7
872.000000	0.196929	-1.940596E-7
873.000000	0.188840	-1.870447E-7
874.000000	0.180981	-1.774813E-7
875.000000	0.173994	-1.666134E-7
876.000000	0.167471	-1.553900E-7
877.000000	0.161010	-1.443220E-7
878.000000	0.154274	-1.362001E-7
879.000000	0.148170	-1.291517E-7
880.000000	0.142470	-1.228036E-7
881.000000	0.136738	-1.176878E-7
882.000000	0.130631	-1.106890E-7
883.000000	0.125289	-1.045165E-7
884.000000	0.120634	-9.938177E-8
885.000000	0.115736	-9.284249E-8
886.000000	0.110671	-8.692586E-8
887.000000	0.106544	-8.386018E-8
888.000000	0.102367	-8.051823E-8
889.000000	0.097825	-7.655211E-8
890.000000	0.094175	-7.280608E-8
891.000000	0.090545	-6.893000E-8
892.000000	0.086788	-6.497311E-8
893.000000	0.083342	-6.214663E-8
894.000000	0.079766	-6.047614E-8
895.000000	0.076637	-5.792431E-8
896.000000	0.073394	-5.478125E-8
897.000000	0.070235	-5.249863E-8
898.000000	0.067534	-5.002054E-8
899.000000	0.064721	-4.780055E-8
900.000000	0.061955	-4.565524E-8
901.000000	0.059406	-4.359878E-8
902.000000	0.056846	-4.197207E-8
903.000000	0.054596	-3.996425E-8
904.000000	0.052366	-3.811128E-8
905.000000	0.049935	-3.678031E-8
906.000000	0.048107	-3.517019E-8
907.000000	0.046116	-3.363878E-8
908.000000	0.044147	-3.228842E-8
909.000000	0.042329	-3.070846E-8
910.000000	0.040576	-2.959617E-8
911.000000	0.038967	-2.836875E-8
912.000000	0.037218	-2.716247E-8
913.000000	0.035644	-2.626948E-8
914.000000	0.034152	-2.501102E-8
915.000000	0.032689	-2.390535E-8
916.000000	0.031480	-2.278397E-8
917.000000	0.030151	-2.155353E-8
918.000000	0.028860	-2.093445E-8
919.000000	0.027623	-2.006644E-8
920.000000	0.026466	-1.893275E-8
921.000000	0.025355	-1.826441E-8
922.000000	0.024279	-1.737718E-8
923.000000	0.023238	-1.646171E-8
924.000000	0.022302	-1.585065E-8
925.000000	0.021334	-1.504266E-8
926.000000	0.020420	-1.450323E-8
927.000000	0.019615	-1.397781E-8
928.000000	0.018814	-1.329784E-8
929.000000	0.017987	-1.274351E-8
930.000000	0.017254	-1.192621E-8
931.000000	0.016523	-1.122675E-8
932.000000	0.015845	-1.075944E-8
933.000000	0.015173	-1.016218E-8
934.000000	0.014519	-9.762010E-9
935.000000	0.013986	-9.376266E-9
936.000000	0.013353	-8.845263E-9
937.000000	0.012808	-8.525667E-9
938.000000	0.012285	-8.047966E-9
939.000000	0.011799	-7.638763E-9
940.000000	0.011308	-7.410944E-9
941.000000	0.010832	-7.062843E-9
942.000000	0.010394	-6.793308E-9
943.000000	0.009962	-6.495338E-9
944.000000	0.009552	-6.075559E-9
945.000000	0.009158	-5.754772E-9
946.000000	0.008798	-5.451423E-9
947.000000	0.008436	-5.156412E-9
948.000000	0.008056	-4.968340E-9
949.000000	0.007787	-4.765971E-9
950.000000	0.007453	-4.543570E-9
951.000000	0.007166	-4.350240E-9
952.000000	0.006878	-4.100676E-9
953.000000	0.006586	-3.936252E-9
954.000000	0.006345	-3.787318E-9
955.000000	0.006086	-3.594542E-9
956.000000	0.005846	-3.473065E-9
957.000000	0.005616	-3.305546E-9
958.000000	0.005408	-3.128992E-9
959.000000	0.005194	-2.967672E-9
960.000000	0.005019	-2.794695E-9
961.000000	0.004825	-2.667029E-9
962.000000	0.004629	-2.550797E-9
963.000000	0.004454	-2.444050E-9
964.000000	0.004284	-2.370186E-9
965.000000	0.004135	-2.258770E-9
966.000000	0.003975	-2.141800E-9
967.000000	0.003834	-2.062482E-9
968.000000	0.003687	-1.961730E-9
969.000000	0.003553	-1.889380E-9
970.000000	0.003433	-1.820984E-9
971.000000	0.003309	-1.724994E-9
972.000000	0.003195	-1.645693E-9
973.000000	0.003087	-1.560615E-9
974.000000	0.002982	-1.474855E-9
975.000000	0.002890	-1.413299E-9
976.000000	0.002799	-1.353263E-9
977.000000	0.002708	-1.307421E-9
978.000000	0.002609	-1.265033E-9
979.000000	0.002524	-1.215801E-9
980.000000	0.002425	-1.164240E-9
981.000000	0.002370	-1.128628E-9
982.000000	0.002285	-1.083122E-9
983.000000	0.002202	-1.051118E-9
984.000000	0.002141	-1.015207E-9
985.000000	0.002065	-9.702211E-10
986.000000	0.002013	-9.346155E-10
987.000000	0.001964	-8.920632E-10
988.000000	0.001900	-8.489960E-10
989.000000	0.001865	-8.232693E-10
990.000000	0.001809	-7.898515E-10
991.000000	0.001759	-7.706231E-10
992.000000	0.001696	-7.472234E-10
993.000000	0.001641	-7.286641E-10
994.000000	0.001581	-7.116888E-10
995.000000	0.001541	-6.940387E-10
996.000000	0.001511	-6.826296E-10
997.000000	0.001452	-6.547080E-10
998.000000	0.001423	-6.408350E-10
999.000000	0.001372	-6.201989E-10
1000.000000	0.001345	-6.042847E-10
1001.000000	0.001305	-5.826513E-10
1002.000000	0.001275	-5.666259E-10
