Wavelength (nm)	EQE (%)	Current (A)	Dark Current (A) -> 	-421.654520000E-12	
400.000000	22.268837	-4.710091E-7
403.000000	24.098391	-1.158426E-6
406.000000	23.083561	-1.803303E-6
409.000000	24.107447	-2.651213E-6
412.000000	24.323515	-4.097498E-6
415.000000	22.475147	-1.808036E-6
418.000000	25.247667	-1.761229E-6
421.000000	23.851560	-1.956257E-6
424.000000	23.895621	-1.771946E-6
427.000000	23.833404	-2.309522E-6
430.000000	23.732153	-3.668765E-6
433.000000	22.844874	-3.309567E-6
436.000000	22.692425	-3.259118E-6
439.000000	22.380121	-3.526238E-6
442.000000	22.414170	-3.708529E-6
445.000000	22.294054	-4.190999E-6
448.000000	22.015432	-4.698474E-6
451.000000	20.929623	-3.935841E-6
454.000000	22.701278	-3.929885E-6
457.000000	22.702187	-4.387658E-6
460.000000	23.754524	-3.375851E-6
463.000000	23.345687	-5.704544E-6
466.000000	25.548935	-4.916963E-6
469.000000	25.582430	-4.530643E-6
472.000000	26.245003	-4.300596E-6
475.000000	25.627250	-3.982930E-6
478.000000	26.813866	-5.349500E-6
481.000000	28.798117	-4.784120E-6
484.000000	28.735788	-4.603696E-6
487.000000	28.835252	-6.380336E-6
490.000000	29.820397	-5.430680E-6
493.000000	29.514821	-5.465024E-6
496.000000	29.899696	-6.660902E-6
499.000000	31.250186	-6.938277E-6
502.000000	32.018157	-6.457947E-6
505.000000	32.098796	-7.884169E-6
508.000000	32.054318	-1.016128E-5
511.000000	31.983865	-1.165613E-5
514.000000	32.383506	-7.563512E-6
517.000000	33.225145	-7.643670E-6
520.000000	33.349833	-1.320399E-5
523.000000	32.732388	-1.180611E-5
526.000000	33.765916	-7.225284E-6
529.000000	34.783604	-9.852566E-6
532.000000	33.713047	-1.037656E-5
535.000000	33.111762	-4.744648E-6
538.000000	35.409119	-8.864706E-6
541.000000	34.871408	-1.171206E-5
544.000000	34.007718	-5.179851E-6
547.000000	35.255084	-9.987408E-6
550.000000	34.851677	-8.935597E-6
553.000000	35.390631	-6.551418E-6
556.000000	35.463782	-8.905646E-6
559.000000	35.697116	-6.211546E-6
562.000000	35.689555	-7.955984E-6
565.000000	36.165557	-7.552754E-6
568.000000	36.238107	-7.467921E-6
571.000000	35.825749	-8.773479E-6
574.000000	36.504401	-8.261474E-6
577.000000	36.691433	-1.235877E-5
580.000000	36.713580	-8.788427E-6
583.000000	37.253970	-9.458408E-6
586.000000	37.506700	-1.236149E-5
589.000000	37.628563	-8.548461E-6
592.000000	35.784661	-4.676946E-6
595.000000	34.203523	-5.344575E-6
598.000000	34.459320	-4.275441E-6
601.000000	35.173842	-5.964456E-6
604.000000	34.815623	-6.112246E-6
607.000000	35.843560	-6.745971E-6
610.000000	36.530982	-7.014487E-6
613.000000	36.877503	-1.206115E-5
616.000000	34.876940	-1.446970E-5
619.000000	35.009616	-8.339503E-6
622.000000	37.713148	-1.784528E-5
625.000000	35.103771	-1.994889E-5
628.000000	35.118673	-1.035580E-5
631.000000	37.480464	-1.335290E-5
634.000000	37.023890	-1.611996E-5
637.000000	36.501151	-2.038098E-5
640.000000	36.146146	-1.991939E-5
643.000000	37.240488	-1.951078E-5
646.000000	37.460532	-2.340284E-5
649.000000	37.883118	-2.295721E-5
652.000000	37.875151	-2.872040E-5
655.000000	37.472806	-2.612815E-5
658.000000	38.161517	-2.880380E-5
661.000000	36.455338	-3.298016E-5
664.000000	36.888365	-2.950172E-5
667.000000	37.111599	-3.348633E-5
670.000000	36.618867	-3.314233E-5
673.000000	37.066974	-3.505454E-5
676.000000	36.624755	-3.664460E-5
679.000000	36.935306	-3.673404E-5
682.000000	37.332237	-3.779483E-5
685.000000	37.576815	-4.029388E-5
688.000000	38.140365	-4.062280E-5
691.000000	38.458923	-4.141458E-5
694.000000	38.549879	-3.996355E-5
697.000000	39.442265	-3.994983E-5
700.000000	39.304544	-4.380918E-5
703.000000	38.802314	-4.394755E-5
706.000000	37.544548	-4.383237E-5
709.000000	37.298604	-4.209368E-5
712.000000	36.448403	-4.688621E-5
715.000000	36.178797	-4.042184E-5
718.000000	35.081715	-3.713451E-5
721.000000	33.315426	-4.370139E-5
724.000000	32.003232	-3.276196E-5
727.000000	30.859400	-3.562798E-5
730.000000	28.774667	-2.936796E-5
733.000000	27.649312	-2.749262E-5
736.000000	25.398219	-2.554470E-5
739.000000	23.437037	-1.968863E-5
742.000000	21.683565	-2.063443E-5
745.000000	19.331029	-1.498704E-5
748.000000	17.898228	-1.468261E-5
751.000000	15.481974	-1.222934E-5
754.000000	13.665807	-9.409046E-6
757.000000	12.037595	-9.455598E-6
760.000000	10.225204	-6.516620E-6
763.000000	8.850646	-6.164816E-6
766.000000	7.427138	-4.707113E-6
769.000000	6.306443	-3.590178E-6
772.000000	5.218572	-3.292212E-6
775.000000	4.279004	-2.301410E-6
778.000000	3.629691	-2.147702E-6
781.000000	2.955861	-1.658775E-6
784.000000	2.466957	-1.305401E-6
787.000000	2.034296	-1.171622E-6
790.000000	1.653427	-8.665094E-7
793.000000	1.396267	-8.202038E-7
796.000000	1.138087	-6.340250E-7
799.000000	0.963354	-5.385896E-7
802.000000	0.802396	-4.777094E-7
805.000000	0.677816	-3.745137E-7
808.000000	0.581162	-3.543419E-7
811.000000	0.491830	-2.726854E-7
814.000000	0.434429	-2.557172E-7
817.000000	0.376878	-2.217999E-7
820.000000	0.335091	-1.924810E-7
823.000000	0.301165	-1.929242E-7
826.000000	0.266254	-1.535661E-7
829.000000	0.245443	-1.612448E-7
832.000000	0.216727	-1.349094E-7
835.000000	0.205102	-1.386568E-7
838.000000	0.190521	-1.302709E-7
841.000000	0.177672	-1.138764E-7
844.000000	0.163655	-1.145533E-7
847.000000	0.149987	-9.843317E-8
850.000000	0.140519	-1.003314E-7
853.000000	0.129934	-8.667635E-8
856.000000	0.121953	-8.198965E-8
859.000000	0.113522	-7.688170E-8
862.000000	0.106628	-6.599343E-8
865.000000	0.100095	-6.204071E-8
868.000000	0.093954	-5.419357E-8
871.000000	0.089083	-5.016480E-8
874.000000	0.084463	-4.377568E-8
877.000000	0.078759	-3.879686E-8
880.000000	0.074617	-3.616709E-8
883.000000	0.070264	-3.191129E-8
886.000000	0.066882	-2.996728E-8
889.000000	0.062472	-2.687582E-8
892.000000	0.059190	-2.456826E-8
895.000000	0.055948	-2.233908E-8
898.000000	0.052320	-2.074116E-8
901.000000	0.049454	-1.904505E-8
904.000000	0.047040	-1.889490E-8
907.000000	0.043218	-1.700451E-8
910.000000	0.040963	-1.585995E-8
913.000000	0.038396	-1.559773E-8
916.000000	0.035832	-1.377262E-8
919.000000	0.033699	-1.343385E-8
922.000000	0.030968	-1.241855E-8
925.000000	0.029130	-1.111275E-8
928.000000	0.027360	-1.086952E-8
931.000000	0.025352	-9.304089E-9
934.000000	0.023682	-9.209765E-9
937.000000	0.021935	-8.302683E-9
940.000000	0.020453	-7.195019E-9
943.000000	0.018979	-6.794381E-9
946.000000	0.017407	-5.884868E-9
949.000000	0.016025	-5.710442E-9
952.000000	0.014795	-5.001660E-9
955.000000	0.013827	-4.421639E-9
958.000000	0.012813	-3.971287E-9
961.000000	0.011759	-3.496911E-9
964.000000	0.010860	-3.219748E-9
967.000000	0.009944	-2.803317E-9
970.000000	0.009206	-2.554776E-9
973.000000	0.008548	-2.271156E-9
976.000000	0.007963	-2.032709E-9
979.000000	0.007450	-1.756406E-9
982.000000	0.006964	-1.510491E-9
985.000000	0.006502	-1.379481E-9
988.000000	0.006069	-1.259168E-9
991.000000	0.005574	-1.132651E-9
994.000000	0.005308	-1.005284E-9
997.000000	0.005023	-9.207055E-10
1000.000000	0.004759	-8.766895E-10
1003.000000	0.004382	-8.013615E-10
1006.000000	0.004151	-7.379363E-10
1009.000000	0.003981	-6.800825E-10
1012.000000	0.003772	-6.573644E-10
1015.000000	0.003475	-6.156003E-10
1018.000000	0.003274	-5.808523E-10
1021.000000	0.003098	-5.627798E-10
1024.000000	0.002871	-5.398215E-10
1027.000000	0.002681	-5.510892E-10
1030.000000	0.002450	-5.427011E-10
1033.000000	0.002180	-5.045743E-10
1036.000000	0.001890	-4.869125E-10
1039.000000	0.001598	-4.665583E-10
1042.000000	0.001748	-4.570854E-10
1045.000000	0.001961	-4.280382E-10
1048.000000	0.001920	-4.090573E-10
1051.000000	0.001837	-3.999770E-10
1054.000000	0.001561	-3.869493E-10
1057.000000	0.001403	-3.920758E-10
1060.000000	0.001236	-3.908852E-10
1063.000000	0.001026	-3.940056E-10
1066.000000	0.000834	-4.175391E-10
1069.000000	0.000507	-5.409008E-10
1072.000000	0.000325	-7.107837E-10
1075.000000	0.000641	-4.158615E-10
1078.000000	0.000817	-3.698797E-10
1081.000000	0.000955	-3.519193E-10
1084.000000	0.000967	-3.327208E-10
1087.000000	0.001018	-3.178218E-10
1090.000000	0.001066	-3.244853E-10
1093.000000	0.001084	-3.160266E-10
1096.000000	0.001046	-3.009696E-10
1099.000000	0.000996	-3.084601E-10
