Wavelength (nm)	EQE (%)	Current (A)	Dark Current (A) -> 	-5.175979400E-12	
400.000000	0.000384	-8.112372E-12
403.000000	0.000154	-7.390883E-12
406.000000	0.000106	-8.247281E-12
409.000000	7.525894E-5	-8.276591E-12
412.000000	4.192368E-5	-7.062392E-12
415.000000	7.758234E-5	-6.241190E-12
418.000000	0.000116	-8.094782E-12
421.000000	8.660856E-5	-7.103460E-12
424.000000	9.373746E-5	-6.950969E-12
427.000000	7.911623E-5	-7.666579E-12
430.000000	5.425986E-5	-8.388058E-12
433.000000	5.538963E-5	-8.024369E-12
436.000000	5.587173E-5	-8.024376E-12
439.000000	5.628925E-5	-8.868999E-12
442.000000	5.261144E-5	-8.704808E-12
445.000000	4.296662E-5	-8.077178E-12
448.000000	3.787437E-5	-8.083045E-12
451.000000	4.154828E-5	-7.813205E-12
454.000000	4.743768E-5	-8.212077E-12
457.000000	3.857498E-5	-7.455397E-12
460.000000	4.742522E-5	-6.739789E-12
463.000000	3.142328E-5	-7.678313E-12
466.000000	3.846459E-5	-7.402617E-12
469.000000	4.391886E-5	-7.778021E-12
472.000000	4.492493E-5	-7.361552E-12
475.000000	4.846076E-5	-7.531663E-12
478.000000	3.939819E-5	-7.860136E-12
481.000000	4.897376E-5	-8.135822E-12
484.000000	4.481512E-5	-7.179729E-12
487.000000	3.565558E-5	-7.889460E-12
490.000000	4.409484E-5	-8.030240E-12
493.000000	4.111951E-5	-7.613771E-12
496.000000	4.115451E-5	-9.168191E-12
499.000000	3.490026E-5	-7.748680E-12
502.000000	3.865029E-5	-7.795625E-12
505.000000	2.562470E-5	-6.293988E-12
508.000000	2.481374E-5	-7.866003E-12
511.000000	2.184144E-5	-7.959848E-12
514.000000	3.222201E-5	-7.525792E-12
517.000000	3.426805E-5	-7.883597E-12
520.000000	2.048973E-5	-8.112372E-12
523.000000	2.369485E-5	-8.546396E-12
526.000000	3.681509E-5	-7.877751E-12
529.000000	3.114565E-5	-8.822103E-12
532.000000	2.433670E-5	-7.490609E-12
535.000000	5.546806E-5	-7.948125E-12
538.000000	3.214628E-5	-8.047851E-12
541.000000	2.321057E-5	-7.795601E-12
544.000000	5.302946E-5	-8.077129E-12
547.000000	2.683485E-5	-7.602041E-12
550.000000	2.923863E-5	-7.496472E-12
553.000000	4.204841E-5	-7.783888E-12
556.000000	2.947842E-5	-7.402606E-12
559.000000	4.608155E-5	-8.018509E-12
562.000000	3.578584E-5	-7.977449E-12
565.000000	4.140105E-5	-8.646125E-12
568.000000	3.483947E-5	-7.179691E-12
571.000000	3.195245E-5	-7.824935E-12
574.000000	3.390158E-5	-7.672418E-12
577.000000	2.335305E-5	-7.866003E-12
580.000000	3.195350E-5	-7.648968E-12
583.000000	2.716986E-5	-6.898154E-12
586.000000	2.479217E-5	-8.171023E-12
589.000000	3.495995E-5	-7.942206E-12
592.000000	5.865907E-5	-7.666562E-12
595.000000	5.762232E-5	-9.003950E-12
598.000000	6.552621E-5	-8.129976E-12
601.000000	5.126504E-5	-8.693053E-12
604.000000	4.998386E-5	-8.775189E-12
607.000000	4.279203E-5	-8.053714E-12
610.000000	3.913274E-5	-7.514062E-12
613.000000	2.636422E-5	-8.622679E-12
616.000000	1.758832E-5	-7.297021E-12
619.000000	3.558282E-5	-8.476043E-12
622.000000	1.746647E-5	-8.264864E-12
625.000000	2.480342E-5	-1.409537E-11
628.000000	2.434792E-5	-7.179719E-12
631.000000	2.247429E-5	-8.006758E-12
634.000000	2.112462E-5	-9.197521E-12
637.000000	1.422408E-5	-7.942237E-12
640.000000	1.278365E-5	-7.044806E-12
643.000000	1.536101E-5	-8.047833E-12
646.000000	1.342660E-5	-8.388044E-12
649.000000	1.449017E-5	-8.781059E-12
652.000000	1.054351E-5	-7.995056E-12
655.000000	1.091121E-5	-7.607907E-12
658.000000	1.133847E-5	-8.558126E-12
661.000000	9.712794E-6	-8.786902E-12
664.000000	1.073031E-5	-8.581639E-12
667.000000	8.425042E-6	-7.602037E-12
670.000000	8.781838E-6	-7.948104E-12
673.000000	9.719334E-6	-9.191654E-12
676.000000	9.010778E-6	-9.015660E-12
679.000000	7.667284E-6	-7.625504E-12
682.000000	8.267996E-6	-8.370447E-12
685.000000	8.790657E-6	-9.426283E-12
688.000000	7.699232E-6	-8.200350E-12
691.000000	7.636891E-6	-8.223804E-12
694.000000	8.640167E-6	-8.957012E-12
697.000000	8.663710E-6	-8.775199E-12
700.000000	7.483449E-6	-8.341116E-12
703.000000	6.898454E-6	-7.813198E-12
706.000000	7.084285E-6	-8.270735E-12
709.000000	7.292192E-6	-8.229670E-12
712.000000	6.265352E-6	-8.059574E-12
715.000000	7.129580E-6	-7.965736E-12
718.000000	7.048809E-6	-7.461268E-12
721.000000	6.703120E-6	-8.792793E-12
724.000000	7.964582E-6	-8.153405E-12
727.000000	7.448270E-6	-8.599222E-12
730.000000	8.511701E-6	-8.687200E-12
733.000000	8.076008E-6	-8.030240E-12
736.000000	8.503260E-6	-8.552301E-12
739.000000	1.042491E-5	-8.757602E-12
742.000000	8.715904E-6	-8.294195E-12
745.000000	9.797914E-6	-7.596167E-12
748.000000	1.024654E-5	-8.405637E-12
751.000000	9.430858E-6	-7.449513E-12
754.000000	1.323933E-5	-9.115410E-12
757.000000	1.082789E-5	-8.505367E-12
760.000000	1.180868E-5	-7.525782E-12
763.000000	1.168035E-5	-8.135815E-12
766.000000	1.367011E-5	-8.663736E-12
769.000000	1.529067E-5	-8.704783E-12
772.000000	1.258947E-5	-7.942251E-12
775.000000	1.524690E-5	-8.200357E-12
778.000000	1.465189E-5	-8.669579E-12
781.000000	1.473805E-5	-8.270724E-12
784.000000	1.649472E-5	-8.728254E-12
787.000000	1.469663E-5	-8.464302E-12
790.000000	1.499820E-5	-7.860091E-12
793.000000	1.623649E-5	-9.537742E-12
796.000000	1.617276E-5	-9.009796E-12
799.000000	1.690235E-5	-9.449726E-12
802.000000	1.568529E-5	-9.338294E-12
805.000000	1.341888E-5	-7.414337E-12
808.000000	1.530629E-5	-9.332434E-12
811.000000	1.389133E-5	-7.701773E-12
814.000000	1.170909E-5	-6.892299E-12
817.000000	1.571792E-5	-9.250309E-12
820.000000	1.263196E-5	-7.255970E-12
823.000000	1.468745E-5	-9.408682E-12
826.000000	1.749254E-5	-1.008909E-11
829.000000	1.243776E-5	-8.171026E-12
832.000000	1.054446E-5	-6.563784E-12
835.000000	1.185232E-5	-8.012629E-12
838.000000	5.910767E-6	-4.041562E-12
841.000000	1.210787E-5	-7.760393E-12
844.000000	1.362588E-5	-9.537700E-12
847.000000	1.183383E-5	-7.766281E-12
850.000000	1.287335E-5	-9.191651E-12
853.000000	1.030565E-5	-6.874692E-12
856.000000	1.044370E-5	-7.021338E-12
859.000000	1.631777E-5	-1.105107E-11
862.000000	1.666158E-5	-1.031202E-11
865.000000	1.296519E-5	-8.036093E-12
868.000000	1.540659E-5	-8.886638E-12
871.000000	1.468723E-5	-8.270728E-12
874.000000	1.873081E-5	-9.707832E-12
877.000000	1.845697E-5	-9.091936E-12
880.000000	1.471582E-5	-7.132787E-12
883.000000	2.000625E-5	-9.086051E-12
886.000000	2.001668E-5	-8.968746E-12
889.000000	1.675714E-5	-7.209042E-12
892.000000	1.869636E-5	-7.760403E-12
895.000000	2.181558E-5	-8.710650E-12
898.000000	1.853990E-5	-7.349819E-12
901.000000	2.493373E-5	-9.602236E-12
904.000000	2.244515E-5	-9.015660E-12
907.000000	2.090130E-5	-8.223814E-12
910.000000	2.024035E-5	-7.836662E-12
913.000000	1.882885E-5	-7.648979E-12
916.000000	2.241791E-5	-8.616809E-12
919.000000	1.965818E-5	-7.836679E-12
922.000000	2.129762E-5	-8.540561E-12
925.000000	2.114173E-5	-8.065416E-12
928.000000	2.158643E-5	-8.575762E-12
931.000000	2.141709E-5	-7.860119E-12
934.000000	1.871817E-5	-7.279427E-12
937.000000	2.321393E-5	-8.786923E-12
940.000000	2.107615E-5	-7.414337E-12
943.000000	2.205419E-5	-7.895330E-12
946.000000	2.411716E-5	-8.153395E-12
949.000000	2.482373E-5	-8.845581E-12
952.000000	2.481224E-5	-8.388058E-12
955.000000	2.322298E-5	-7.426081E-12
958.000000	2.736544E-5	-8.481917E-12
961.000000	2.582038E-5	-7.678302E-12
964.000000	2.572098E-5	-7.625515E-12
967.000000	3.068906E-5	-8.651992E-12
970.000000	3.100815E-5	-8.605092E-12
973.000000	3.194672E-5	-8.487773E-12
976.000000	3.366198E-5	-8.593355E-12
979.000000	3.356401E-5	-7.912924E-12
982.000000	3.802315E-5	-8.247264E-12
985.000000	3.522115E-5	-7.473008E-12
988.000000	4.167213E-5	-8.646139E-12
991.000000	4.336013E-5	-8.810366E-12
994.000000	4.435232E-5	-8.399784E-12
997.000000	4.492898E-5	-8.235548E-12
1000.000000	4.101446E-5	-7.555120E-12
1003.000000	4.047772E-5	-7.402610E-12
1006.000000	4.536964E-5	-8.065430E-12
1009.000000	5.082389E-5	-8.681326E-12
1012.000000	4.732825E-5	-8.247261E-12
1015.000000	4.917740E-5	-8.710657E-12
1018.000000	4.476449E-5	-7.942248E-12
1021.000000	4.668936E-5	-8.481892E-12
1024.000000	4.888774E-5	-9.191637E-12
1027.000000	4.277184E-5	-8.792734E-12
1030.000000	3.431912E-5	-7.602034E-12
1033.000000	3.860073E-5	-8.933552E-12
1036.000000	2.946413E-5	-7.590314E-12
1039.000000	2.888187E-5	-8.434975E-12
1042.000000	3.117676E-5	-8.153419E-12
1045.000000	3.922989E-5	-8.564024E-12
1048.000000	3.931777E-5	-8.376307E-12
1051.000000	3.844144E-5	-8.370429E-12
1054.000000	3.357496E-5	-8.323533E-12
1057.000000	2.919365E-5	-8.159275E-12
1060.000000	2.837577E-5	-8.974613E-12
1063.000000	2.319776E-5	-8.910088E-12
1066.000000	1.595039E-5	-7.983322E-12
1069.000000	7.082408E-6	-7.560969E-12
1072.000000	3.797999E-6	-8.294133E-12
1075.000000	1.312567E-5	-8.511220E-12
1078.000000	1.779682E-5	-8.053693E-12
1081.000000	2.390473E-5	-8.810383E-12
1084.000000	2.352277E-5	-8.094761E-12
1087.000000	2.293205E-5	-7.162125E-12
1090.000000	2.776597E-5	-8.452565E-12
1093.000000	2.769998E-5	-8.077157E-12
1096.000000	2.903187E-5	-8.352864E-12
1099.000000	2.621191E-5	-8.118232E-12
