Wavelength (nm)	EQE (%)	Current (A)	Dark Current (A) -> 	-846.636880000E-12	
400.000000	19.696155	-4.165942E-7
403.000000	21.273842	-1.022648E-6
406.000000	20.293390	-1.585333E-6
409.000000	21.100459	-2.320520E-6
412.000000	21.085296	-3.551993E-6
415.000000	19.443425	-1.564146E-6
418.000000	22.223272	-1.550253E-6
421.000000	20.944600	-1.717834E-6
424.000000	20.924126	-1.551599E-6
427.000000	21.049386	-2.039743E-6
430.000000	21.046716	-3.253622E-6
433.000000	20.442577	-2.961543E-6
436.000000	20.347865	-2.922389E-6
439.000000	20.055450	-3.159960E-6
442.000000	20.259991	-3.352110E-6
445.000000	20.071862	-3.773255E-6
448.000000	19.814448	-4.228746E-6
451.000000	18.682352	-3.513239E-6
454.000000	20.502344	-3.549221E-6
457.000000	20.460932	-3.954490E-6
460.000000	21.502818	-3.055852E-6
463.000000	20.516491	-5.013227E-6
466.000000	22.825077	-4.392749E-6
469.000000	22.653691	-4.011964E-6
472.000000	23.392780	-3.833221E-6
475.000000	22.526730	-3.501054E-6
478.000000	23.586528	-4.705630E-6
481.000000	25.793141	-4.284915E-6
484.000000	25.836234	-4.139165E-6
487.000000	25.814223	-5.711877E-6
490.000000	26.778444	-4.876701E-6
493.000000	26.338538	-4.876897E-6
496.000000	26.409595	-5.883395E-6
499.000000	28.053647	-6.228570E-6
502.000000	28.725054	-5.793740E-6
505.000000	28.909456	-7.100797E-6
508.000000	28.640158	-9.078985E-6
511.000000	28.279228	-1.030602E-5
514.000000	28.789544	-6.724104E-6
517.000000	29.726909	-6.838877E-6
520.000000	29.509119	-1.168336E-5
523.000000	28.374718	-1.023436E-5
526.000000	30.335877	-6.491319E-6
529.000000	30.991000	-8.778299E-6
532.000000	29.639911	-9.122887E-6
535.000000	29.280737	-4.195693E-6
538.000000	31.908861	-7.988413E-6
541.000000	31.450056	-1.056295E-5
544.000000	30.734263	-4.681258E-6
547.000000	31.676279	-8.973569E-6
550.000000	30.996555	-7.947185E-6
553.000000	31.935783	-5.911866E-6
556.000000	31.819042	-7.990381E-6
559.000000	31.704201	-5.516751E-6
562.000000	32.090837	-7.153751E-6
565.000000	32.374725	-6.761083E-6
568.000000	32.509895	-6.699614E-6
571.000000	31.811083	-7.790315E-6
574.000000	32.921011	-7.450501E-6
577.000000	32.672905	-1.100521E-5
580.000000	32.581289	-7.799247E-6
583.000000	33.632428	-8.538935E-6
586.000000	33.531226	-1.105125E-5
589.000000	33.649522	-7.644502E-6
592.000000	31.259896	-4.085573E-6
595.000000	30.215376	-4.721395E-6
598.000000	31.200603	-3.871125E-6
601.000000	31.230238	-5.295736E-6
604.000000	30.657015	-5.382159E-6
607.000000	31.790399	-5.983142E-6
610.000000	32.427876	-6.226630E-6
613.000000	32.241807	-1.054500E-5
616.000000	30.729631	-1.274907E-5
619.000000	31.126562	-7.414536E-6
622.000000	32.643604	-1.544645E-5
625.000000	30.703291	-1.744817E-5
628.000000	30.916844	-9.116764E-6
631.000000	32.948980	-1.173850E-5
634.000000	32.399728	-1.410663E-5
637.000000	31.983052	-1.785823E-5
640.000000	31.710323	-1.747490E-5
643.000000	32.729950	-1.714765E-5
646.000000	32.879569	-2.054096E-5
649.000000	33.417185	-2.025085E-5
652.000000	33.177128	-2.515793E-5
655.000000	32.808524	-2.287595E-5
658.000000	33.683098	-2.542355E-5
661.000000	32.255036	-2.918026E-5
664.000000	32.661017	-2.612087E-5
667.000000	32.693914	-2.950019E-5
670.000000	32.517687	-2.943051E-5
673.000000	32.568102	-3.079992E-5
676.000000	32.289604	-3.230710E-5
679.000000	32.770361	-3.259179E-5
682.000000	32.858651	-3.326581E-5
685.000000	33.193322	-3.559343E-5
688.000000	33.532562	-3.571509E-5
691.000000	33.753551	-3.634759E-5
694.000000	33.878389	-3.512075E-5
697.000000	35.036481	-3.548735E-5
700.000000	34.758078	-3.874165E-5
703.000000	34.018936	-3.852989E-5
706.000000	33.250851	-3.881958E-5
709.000000	33.027184	-3.727313E-5
712.000000	32.038948	-4.121401E-5
715.000000	31.854338	-3.559021E-5
718.000000	31.093778	-3.291322E-5
721.000000	29.598092	-3.882519E-5
724.000000	28.606306	-2.928450E-5
727.000000	27.443097	-3.168377E-5
730.000000	25.608411	-2.613642E-5
733.000000	24.585469	-2.444614E-5
736.000000	22.579675	-2.270990E-5
739.000000	20.912422	-1.756779E-5
742.000000	19.269735	-1.833739E-5
745.000000	17.353896	-1.345420E-5
748.000000	15.969744	-1.310060E-5
751.000000	13.856228	-1.094515E-5
754.000000	12.312213	-8.477083E-6
757.000000	10.722062	-8.422240E-6
760.000000	9.121066	-5.812942E-6
763.000000	7.932948	-5.525604E-6
766.000000	6.694535	-4.242810E-6
769.000000	5.701959	-3.246053E-6
772.000000	4.749400	-2.996228E-6
775.000000	3.897597	-2.096275E-6
778.000000	3.285674	-1.944146E-6
781.000000	2.714561	-1.523362E-6
784.000000	2.263646	-1.197818E-6
787.000000	1.887703	-1.087194E-6
790.000000	1.537781	-8.059030E-7
793.000000	1.304140	-7.660861E-7
796.000000	1.074314	-5.984969E-7
799.000000	0.912362	-5.100810E-7
802.000000	0.771537	-4.593375E-7
805.000000	0.651486	-3.599655E-7
808.000000	0.564463	-3.441603E-7
811.000000	0.480814	-2.665777E-7
814.000000	0.429209	-2.526442E-7
817.000000	0.373218	-2.196459E-7
820.000000	0.333143	-1.913620E-7
823.000000	0.301987	-1.934511E-7
826.000000	0.266586	-1.537576E-7
829.000000	0.247944	-1.628878E-7
832.000000	0.218609	-1.360814E-7
835.000000	0.207951	-1.405830E-7
838.000000	0.194233	-1.328091E-7
841.000000	0.181700	-1.164586E-7
844.000000	0.168012	-1.176035E-7
847.000000	0.155051	-1.017565E-7
850.000000	0.146002	-1.042463E-7
853.000000	0.135290	-9.024922E-8
856.000000	0.126644	-8.514321E-8
859.000000	0.118679	-8.037415E-8
862.000000	0.111272	-6.886757E-8
865.000000	0.104376	-6.469453E-8
868.000000	0.098479	-5.680332E-8
871.000000	0.093476	-5.263845E-8
874.000000	0.088784	-4.601486E-8
877.000000	0.082469	-4.062414E-8
880.000000	0.078436	-3.801821E-8
883.000000	0.073894	-3.355977E-8
886.000000	0.070147	-3.143053E-8
889.000000	0.065444	-2.815428E-8
892.000000	0.061887	-2.568797E-8
895.000000	0.058938	-2.353324E-8
898.000000	0.055183	-2.187634E-8
901.000000	0.052234	-2.011579E-8
904.000000	0.049409	-1.984650E-8
907.000000	0.045596	-1.794012E-8
910.000000	0.043455	-1.682492E-8
913.000000	0.040941	-1.663163E-8
916.000000	0.037986	-1.460067E-8
919.000000	0.035746	-1.425017E-8
922.000000	0.033299	-1.335312E-8
925.000000	0.030519	-1.164277E-8
928.000000	0.029131	-1.157289E-8
931.000000	0.026918	-9.879123E-9
934.000000	0.025197	-9.798868E-9
937.000000	0.023437	-8.871210E-9
940.000000	0.021924	-7.712712E-9
943.000000	0.020244	-7.247435E-9
946.000000	0.018654	-6.306473E-9
949.000000	0.017246	-6.145345E-9
952.000000	0.016041	-5.422997E-9
955.000000	0.015062	-4.816290E-9
958.000000	0.013923	-4.315501E-9
961.000000	0.012788	-3.802892E-9
964.000000	0.011842	-3.510824E-9
967.000000	0.011024	-3.107953E-9
970.000000	0.010241	-2.841995E-9
973.000000	0.009639	-2.561063E-9
976.000000	0.008919	-2.276981E-9
979.000000	0.008480	-1.999262E-9
982.000000	0.008171	-1.772329E-9
985.000000	0.007653	-1.623781E-9
988.000000	0.007115	-1.476216E-9
991.000000	0.006657	-1.352609E-9
994.000000	0.006494	-1.229874E-9
997.000000	0.006243	-1.144363E-9
1000.000000	0.005949	-1.095842E-9
1003.000000	0.005496	-1.005113E-9
1006.000000	0.005266	-9.360613E-10
1009.000000	0.005080	-8.677139E-10
1012.000000	0.004874	-8.492427E-10
1015.000000	0.004557	-8.072449E-10
1018.000000	0.004471	-7.932661E-10
1021.000000	0.004185	-7.603368E-10
1024.000000	0.003965	-7.454321E-10
1027.000000	0.003563	-7.323926E-10
1030.000000	0.003315	-7.342696E-10
1033.000000	0.003023	-6.995445E-10
1036.000000	0.002668	-6.873260E-10
1039.000000	0.002276	-6.647491E-10
1042.000000	0.002450	-6.408110E-10
1045.000000	0.002778	-6.065376E-10
1048.000000	0.002835	-6.039101E-10
1051.000000	0.002679	-5.833153E-10
1054.000000	0.002348	-5.819955E-10
1057.000000	0.002138	-5.974342E-10
1060.000000	0.001801	-5.695661E-10
1063.000000	0.001577	-6.058516E-10
1066.000000	0.001208	-6.044787E-10
1069.000000	0.000680	-7.264795E-10
1072.000000	0.000424	-9.255504E-10
1075.000000	0.000958	-6.213424E-10
1078.000000	0.001239	-5.608205E-10
1081.000000	0.001449	-5.342194E-10
1084.000000	0.001596	-5.491594E-10
1087.000000	0.001646	-5.140235E-10
1090.000000	0.001718	-5.228752E-10
1093.000000	0.001750	-5.103754E-10
1096.000000	0.001784	-5.134022E-10
1099.000000	0.001617	-5.007849E-10
