Wavelength (nm)	EQE (%)	Current (A)	Dark Current (A) -> 	-2.095024811E-9	
400.000000	31.806500	-6.727406E-7
403.000000	31.693832	-1.523544E-6
406.000000	28.143311	-2.198574E-6
409.000000	27.462532	-3.020188E-6
412.000000	25.291268	-4.260524E-6
415.000000	25.693281	-2.066922E-6
418.000000	28.276806	-1.972536E-6
421.000000	26.502051	-2.173645E-6
424.000000	26.794348	-1.986897E-6
427.000000	26.084074	-2.527618E-6
430.000000	24.409646	-3.773499E-6
433.000000	23.764863	-3.442847E-6
436.000000	23.629834	-3.393750E-6
439.000000	22.940088	-3.614467E-6
442.000000	22.496331	-3.722123E-6
445.000000	21.701935	-4.079688E-6
448.000000	20.885749	-4.457380E-6
451.000000	20.689879	-3.890757E-6
454.000000	21.485003	-3.719332E-6
457.000000	20.601900	-3.981735E-6
460.000000	21.910688	-3.113816E-6
463.000000	19.740948	-4.823722E-6
466.000000	21.293579	-4.098008E-6
469.000000	21.481917	-3.804443E-6
472.000000	21.479009	-3.519624E-6
475.000000	20.990914	-3.262361E-6
478.000000	20.105718	-4.011191E-6
481.000000	21.930618	-3.643249E-6
484.000000	21.665562	-3.470991E-6
487.000000	20.673643	-4.574428E-6
490.000000	21.732800	-3.957824E-6
493.000000	21.286811	-3.941509E-6
496.000000	20.723093	-4.616585E-6
499.000000	21.197640	-4.706375E-6
502.000000	21.889424	-4.415018E-6
505.000000	21.170168	-5.199858E-6
508.000000	20.089431	-6.368388E-6
511.000000	19.665407	-7.166818E-6
514.000000	21.483570	-5.017716E-6
517.000000	22.053573	-5.073574E-6
520.000000	20.024191	-7.928052E-6
523.000000	19.940168	-7.192137E-6
526.000000	22.367981	-4.786336E-6
529.000000	21.936369	-6.213546E-6
532.000000	21.184060	-6.520255E-6
535.000000	23.072215	-3.306062E-6
538.000000	22.588188	-5.654974E-6
541.000000	21.271524	-7.144345E-6
544.000000	23.586915	-3.592617E-6
547.000000	21.990282	-6.229624E-6
550.000000	22.263281	-5.708067E-6
553.000000	23.881096	-4.420804E-6
556.000000	22.934435	-5.759283E-6
559.000000	24.319639	-4.231786E-6
562.000000	23.490525	-5.236553E-6
565.000000	24.202542	-5.054418E-6
568.000000	24.106928	-4.967937E-6
571.000000	23.476083	-5.749131E-6
574.000000	24.175746	-5.471321E-6
577.000000	22.281807	-7.505178E-6
580.000000	23.723311	-5.678841E-6
583.000000	23.431291	-5.948969E-6
586.000000	22.740651	-7.494883E-6
589.000000	24.429468	-5.549889E-6
592.000000	24.615196	-3.217131E-6
595.000000	23.415866	-3.658917E-6
598.000000	24.416331	-3.029386E-6
601.000000	23.860395	-4.046026E-6
604.000000	23.822001	-4.182201E-6
607.000000	24.227195	-4.559702E-6
610.000000	24.395430	-4.684282E-6
613.000000	23.293827	-7.618475E-6
616.000000	21.304392	-8.838739E-6
619.000000	23.855492	-5.682523E-6
622.000000	22.601307	-1.069459E-5
625.000000	20.836083	-1.184080E-5
628.000000	23.312911	-6.874515E-6
631.000000	23.656595	-8.427968E-6
634.000000	22.695214	-9.881348E-6
637.000000	21.641115	-1.208365E-5
640.000000	21.460726	-1.182656E-5
643.000000	22.202632	-1.163225E-5
646.000000	21.832550	-1.363952E-5
649.000000	22.130357	-1.341102E-5
652.000000	21.536141	-1.633067E-5
655.000000	21.478773	-1.497621E-5
658.000000	21.758800	-1.642325E-5
661.000000	20.441961	-1.849329E-5
664.000000	20.919160	-1.673024E-5
667.000000	20.825158	-1.879084E-5
670.000000	20.554104	-1.860273E-5
673.000000	20.601884	-1.948337E-5
676.000000	20.213467	-2.022442E-5
679.000000	20.396896	-2.028575E-5
682.000000	20.541268	-2.079580E-5
685.000000	20.560615	-2.204729E-5
688.000000	20.822481	-2.217775E-5
691.000000	21.129620	-2.275348E-5
694.000000	21.519784	-2.230894E-5
697.000000	22.037924	-2.232152E-5
700.000000	21.802821	-2.430161E-5
703.000000	21.895340	-2.479869E-5
706.000000	21.733418	-2.537325E-5
709.000000	22.015098	-2.484534E-5
712.000000	21.761098	-2.799287E-5
715.000000	22.528089	-2.517018E-5
718.000000	22.703748	-2.403225E-5
721.000000	21.501184	-2.820410E-5
724.000000	22.092260	-2.261602E-5
727.000000	21.640707	-2.498476E-5
730.000000	21.058641	-2.149284E-5
733.000000	21.010901	-2.089183E-5
736.000000	19.811500	-1.992576E-5
739.000000	19.341293	-1.624794E-5
742.000000	18.085644	-1.721059E-5
745.000000	16.830217	-1.304820E-5
748.000000	15.698052	-1.287772E-5
751.000000	13.873433	-1.095874E-5
754.000000	12.673569	-8.725880E-6
757.000000	11.033766	-8.667085E-6
760.000000	9.578967	-6.104767E-6
763.000000	8.322203	-5.796735E-6
766.000000	7.022814	-4.450864E-6
769.000000	6.015679	-3.424650E-6
772.000000	4.960579	-3.129453E-6
775.000000	4.078581	-2.193615E-6
778.000000	3.427841	-2.028267E-6
781.000000	2.775285	-1.557439E-6
784.000000	2.301145	-1.217661E-6
787.000000	1.874448	-1.079560E-6
790.000000	1.513672	-7.932682E-7
793.000000	1.259106	-7.396321E-7
796.000000	1.013145	-5.644201E-7
799.000000	0.848829	-4.745615E-7
802.000000	0.695764	-4.142252E-7
805.000000	0.575209	-3.178205E-7
808.000000	0.484663	-2.955053E-7
811.000000	0.402540	-2.231803E-7
814.000000	0.351608	-2.069663E-7
817.000000	0.297247	-1.749359E-7
820.000000	0.260321	-1.495321E-7
823.000000	0.230660	-1.477590E-7
826.000000	0.198701	-1.146038E-7
829.000000	0.181677	-1.193532E-7
832.000000	0.156034	-9.712912E-8
835.000000	0.145781	-9.855388E-8
838.000000	0.133618	-9.136282E-8
841.000000	0.122476	-7.849923E-8
844.000000	0.112141	-7.849538E-8
847.000000	0.101649	-6.671007E-8
850.000000	0.094640	-6.757365E-8
853.000000	0.087558	-5.840812E-8
856.000000	0.080684	-5.424441E-8
859.000000	0.074944	-5.075544E-8
862.000000	0.069485	-4.300512E-8
865.000000	0.064668	-4.008252E-8
868.000000	0.060321	-3.479375E-8
871.000000	0.056795	-3.198237E-8
874.000000	0.053501	-2.772874E-8
877.000000	0.049427	-2.434788E-8
880.000000	0.046519	-2.254809E-8
883.000000	0.043405	-1.971291E-8
886.000000	0.041246	-1.848103E-8
889.000000	0.038186	-1.642802E-8
892.000000	0.035877	-1.489150E-8
895.000000	0.034110	-1.361967E-8
898.000000	0.031740	-1.258294E-8
901.000000	0.029983	-1.154684E-8
904.000000	0.028123	-1.129640E-8
907.000000	0.025904	-1.019199E-8
910.000000	0.024331	-9.420591E-9
913.000000	0.022941	-9.319454E-9
916.000000	0.021298	-8.186527E-9
919.000000	0.019976	-7.963202E-9
922.000000	0.018378	-7.369666E-9
925.000000	0.016978	-6.476871E-9
928.000000	0.015980	-6.348357E-9
931.000000	0.014696	-5.393574E-9
934.000000	0.013773	-5.356449E-9
937.000000	0.012689	-4.803048E-9
940.000000	0.011844	-4.166586E-9
943.000000	0.010696	-3.829027E-9
946.000000	0.009804	-3.314493E-9
949.000000	0.009013	-3.211492E-9
952.000000	0.008122	-2.745888E-9
955.000000	0.007564	-2.418704E-9
958.000000	0.006966	-2.159074E-9
961.000000	0.006231	-1.853032E-9
964.000000	0.005698	-1.689326E-9
967.000000	0.005111	-1.440889E-9
970.000000	0.004725	-1.311228E-9
973.000000	0.004172	-1.108515E-9
976.000000	0.003745	-9.561471E-10
979.000000	0.003353	-7.903760E-10
982.000000	0.002857	-6.196954E-10
985.000000	0.002510	-5.325660E-10
988.000000	0.002075	-4.306081E-10
991.000000	0.001895	-3.850548E-10
994.000000	0.001586	-3.002952E-10
997.000000	0.001461	-2.678404E-10
1000.000000	0.001292	-2.380014E-10
1003.000000	0.001001	-1.829987E-10
1006.000000	0.001012	-1.799248E-10
1009.000000	0.000598	-1.022219E-10
1012.000000	0.000579	-1.008200E-10
1015.000000	0.000540	-9.565806E-11
1018.000000	0.000393	-6.964959E-11
1021.000000	2.893092E-5	-5.255778E-12
1024.000000	2.339906E-5	-4.399378E-12
1027.000000	1.814776E-5	-3.730689E-12
1030.000000	0.000108	2.396686E-11
1033.000000	5.755811E-5	1.332095E-11
1036.000000	0.000141	3.625918E-11
1039.000000	0.000102	-2.970404E-11
1042.000000	0.000228	5.974123E-11
1045.000000	0.000413	9.009669E-11
1048.000000	0.000591	1.258301E-10
1051.000000	0.000630	1.371958E-10
1054.000000	0.000350	8.676559E-11
1057.000000	0.000423	1.181825E-10
1060.000000	0.000400	1.265925E-10
1063.000000	0.000352	1.351021E-10
1066.000000	0.000299	1.494940E-10
1069.000000	2.570754E-5	2.744461E-11
1072.000000	6.839617E-5	-1.493647E-10
1075.000000	0.000156	1.010284E-10
1078.000000	0.000299	1.354305E-10
1081.000000	0.000340	1.252084E-10
1084.000000	0.000355	1.221646E-10
1087.000000	0.000412	1.286040E-10
1090.000000	0.000442	1.344394E-10
1093.000000	0.000276	8.041418E-11
1096.000000	0.000435	1.251439E-10
1099.000000	0.000385	1.191560E-10
