Wavelength (nm)	EQE (%)	Current (A)	Dark Current (A) -> 	-1.514359000E-9	
400.000000	34.310135	-7.256951E-7
403.000000	35.689512	-1.715619E-6
406.000000	32.696358	-2.554261E-6
409.000000	32.818183	-3.609175E-6
412.000000	31.243216	-5.263179E-6
415.000000	29.844798	-2.400895E-6
418.000000	33.357020	-2.326922E-6
421.000000	31.142301	-2.554229E-6
424.000000	31.368085	-2.326056E-6
427.000000	30.667464	-2.971761E-6
430.000000	29.755635	-4.599938E-6
433.000000	28.733024	-4.162591E-6
436.000000	28.840743	-4.142148E-6
439.000000	28.502595	-4.490902E-6
442.000000	28.279136	-4.678915E-6
445.000000	27.554692	-5.179932E-6
448.000000	26.672407	-5.692353E-6
451.000000	25.597239	-4.813592E-6
454.000000	27.347234	-4.734160E-6
457.000000	26.414066	-5.105054E-6
460.000000	27.689013	-3.934997E-6
463.000000	24.775719	-6.053974E-6
466.000000	27.208771	-5.236403E-6
469.000000	26.815306	-4.748985E-6
472.000000	27.001352	-4.424534E-6
475.000000	26.069935	-4.051731E-6
478.000000	25.727537	-5.132772E-6
481.000000	27.293092	-4.534096E-6
484.000000	27.179715	-4.354401E-6
487.000000	26.248378	-5.807942E-6
490.000000	27.339101	-4.978804E-6
493.000000	26.575233	-4.920724E-6
496.000000	26.240837	-5.845800E-6
499.000000	26.664258	-5.920093E-6
502.000000	27.525474	-5.551789E-6
505.000000	26.960286	-6.622038E-6
508.000000	25.494925	-8.081940E-6
511.000000	25.343149	-9.236002E-6
514.000000	26.930353	-6.289870E-6
517.000000	27.632587	-6.357064E-6
520.000000	25.668480	-1.016276E-5
523.000000	25.154123	-9.072737E-6
526.000000	27.940709	-5.978797E-6
529.000000	27.563169	-7.807355E-6
532.000000	26.485345	-8.151941E-6
535.000000	27.898572	-3.997640E-6
538.000000	28.332561	-7.093083E-6
541.000000	26.634640	-8.945624E-6
544.000000	28.579346	-4.353034E-6
547.000000	27.510359	-7.793406E-6
550.000000	27.439121	-7.035097E-6
553.000000	28.917270	-5.353087E-6
556.000000	28.113444	-7.059833E-6
559.000000	29.497731	-5.132810E-6
562.000000	28.588768	-6.373063E-6
565.000000	29.186909	-6.095345E-6
568.000000	29.069752	-5.990672E-6
571.000000	28.200850	-6.906194E-6
574.000000	29.186720	-6.605377E-6
577.000000	27.525930	-9.271555E-6
580.000000	28.452603	-6.810930E-6
583.000000	28.580558	-7.256316E-6
586.000000	27.779788	-9.155686E-6
589.000000	28.873065	-6.559386E-6
592.000000	28.999835	-3.790190E-6
595.000000	27.666758	-4.323153E-6
598.000000	28.291972	-3.510245E-6
601.000000	27.686874	-4.694885E-6
604.000000	27.499236	-4.827778E-6
607.000000	27.864083	-5.244186E-6
610.000000	28.410991	-5.455329E-6
613.000000	27.662688	-9.047354E-6
616.000000	25.240123	-1.047159E-5
619.000000	26.910440	-6.410230E-6
622.000000	26.870043	-1.271449E-5
625.000000	24.788618	-1.408696E-5
628.000000	26.489073	-7.811102E-6
631.000000	27.447133	-9.778396E-6
634.000000	26.231927	-1.142121E-5
637.000000	25.527477	-1.425366E-5
640.000000	25.070243	-1.381569E-5
643.000000	26.170026	-1.371082E-5
646.000000	25.822317	-1.613206E-5
649.000000	25.843964	-1.566147E-5
652.000000	25.429948	-1.928331E-5
655.000000	25.174258	-1.755291E-5
658.000000	25.476619	-1.922941E-5
661.000000	24.094894	-2.179800E-5
664.000000	24.602917	-1.967635E-5
667.000000	24.322697	-2.194672E-5
670.000000	24.220164	-2.192074E-5
673.000000	24.257811	-2.294081E-5
676.000000	23.737568	-2.375043E-5
679.000000	24.036298	-2.390532E-5
682.000000	24.218868	-2.451897E-5
685.000000	24.291188	-2.604761E-5
688.000000	24.692579	-2.629974E-5
691.000000	25.067885	-2.699441E-5
694.000000	25.495181	-2.643012E-5
697.000000	26.380955	-2.672044E-5
700.000000	26.270183	-2.928097E-5
703.000000	26.068539	-2.952526E-5
706.000000	25.930591	-3.027335E-5
709.000000	26.281015	-2.965968E-5
712.000000	26.024592	-3.347731E-5
715.000000	26.750389	-2.988767E-5
718.000000	26.787036	-2.835447E-5
721.000000	25.563661	-3.353304E-5
724.000000	25.706387	-2.631583E-5
727.000000	25.176306	-2.906670E-5
730.000000	24.288545	-2.478934E-5
733.000000	24.011094	-2.387502E-5
736.000000	22.399424	-2.252861E-5
739.000000	21.381362	-1.796173E-5
742.000000	19.899232	-1.893643E-5
745.000000	18.205906	-1.411475E-5
748.000000	16.817809	-1.379630E-5
751.000000	14.609632	-1.154027E-5
754.000000	13.072112	-9.000281E-6
757.000000	11.348403	-8.914234E-6
760.000000	9.582528	-6.107036E-6
763.000000	8.294760	-5.777620E-6
766.000000	6.921576	-4.386702E-6
769.000000	5.853956	-3.332583E-6
772.000000	4.829983	-3.047065E-6
775.000000	3.949068	-2.123958E-6
778.000000	3.328812	-1.969671E-6
781.000000	2.720050	-1.526442E-6
784.000000	2.275072	-1.203864E-6
787.000000	1.890740	-1.088943E-6
790.000000	1.546251	-8.103418E-7
793.000000	1.312333	-7.708989E-7
796.000000	1.079130	-6.011803E-7
799.000000	0.924340	-5.167778E-7
802.000000	0.780822	-4.648648E-7
805.000000	0.664747	-3.672925E-7
808.000000	0.577702	-3.522321E-7
811.000000	0.494478	-2.741536E-7
814.000000	0.444029	-2.613679E-7
817.000000	0.387930	-2.283045E-7
820.000000	0.348680	-2.002867E-7
823.000000	0.317983	-2.036981E-7
826.000000	0.282351	-1.628503E-7
829.000000	0.262282	-1.723067E-7
832.000000	0.233337	-1.452491E-7
835.000000	0.222594	-1.504824E-7
838.000000	0.208192	-1.423539E-7
841.000000	0.194850	-1.248870E-7
844.000000	0.180157	-1.261047E-7
847.000000	0.165660	-1.087188E-7
850.000000	0.156544	-1.117733E-7
853.000000	0.144726	-9.654373E-8
856.000000	0.135117	-9.083959E-8
859.000000	0.126650	-8.577275E-8
862.000000	0.118589	-7.339574E-8
865.000000	0.111179	-6.891115E-8
868.000000	0.104600	-6.033415E-8
871.000000	0.098879	-5.568134E-8
874.000000	0.094151	-4.879681E-8
877.000000	0.087877	-4.328850E-8
880.000000	0.082976	-4.021879E-8
883.000000	0.078208	-3.551891E-8
886.000000	0.073831	-3.308082E-8
889.000000	0.069091	-2.972327E-8
892.000000	0.064798	-2.689607E-8
895.000000	0.061584	-2.458975E-8
898.000000	0.057387	-2.274991E-8
901.000000	0.054050	-2.081523E-8
904.000000	0.051003	-2.048655E-8
907.000000	0.047014	-1.849799E-8
910.000000	0.044250	-1.713255E-8
913.000000	0.041520	-1.686688E-8
916.000000	0.038686	-1.486979E-8
919.000000	0.036259	-1.445455E-8
922.000000	0.033532	-1.344657E-8
925.000000	0.031228	-1.191323E-8
928.000000	0.029301	-1.164038E-8
931.000000	0.027308	-1.002228E-8
934.000000	0.025522	-9.925603E-9
937.000000	0.023660	-8.955658E-9
940.000000	0.022022	-7.747122E-9
943.000000	0.020544	-7.354697E-9
946.000000	0.019014	-6.428134E-9
949.000000	0.017453	-6.218955E-9
952.000000	0.016288	-5.506509E-9
955.000000	0.015362	-4.912264E-9
958.000000	0.014373	-4.454956E-9
961.000000	0.013286	-3.951038E-9
964.000000	0.012437	-3.687232E-9
967.000000	0.011554	-3.257259E-9
970.000000	0.010801	-2.997496E-9
973.000000	0.010363	-2.753312E-9
976.000000	0.009783	-2.497449E-9
979.000000	0.009505	-2.240761E-9
982.000000	0.009254	-2.007194E-9
985.000000	0.008679	-1.841388E-9
988.000000	0.008422	-1.747342E-9
991.000000	0.008026	-1.630855E-9
994.000000	0.007944	-1.504584E-9
997.000000	0.007768	-1.423931E-9
1000.000000	0.007432	-1.369003E-9
1003.000000	0.007127	-1.303337E-9
1006.000000	0.006970	-1.239072E-9
1009.000000	0.006983	-1.192709E-9
1012.000000	0.006594	-1.149028E-9
1015.000000	0.006265	-1.109786E-9
1018.000000	0.006268	-1.112045E-9
1021.000000	0.005946	-1.080147E-9
1024.000000	0.005613	-1.055335E-9
1027.000000	0.005168	-1.062327E-9
1030.000000	0.004785	-1.059992E-9
1033.000000	0.004466	-1.033502E-9
1036.000000	0.003954	-1.018709E-9
1039.000000	0.003419	-9.986370E-10
1042.000000	0.003800	-9.938617E-10
1045.000000	0.004436	-9.684873E-10
1048.000000	0.004360	-9.289521E-10
1051.000000	0.004257	-9.269517E-10
1054.000000	0.003748	-9.292750E-10
1057.000000	0.003286	-9.185111E-10
1060.000000	0.002916	-9.221598E-10
1063.000000	0.002418	-9.285588E-10
1066.000000	0.001910	-9.557880E-10
1069.000000	0.000999	-1.066175E-9
1072.000000	0.000574	-1.252722E-9
1075.000000	0.001487	-9.641113E-10
1078.000000	0.002004	-9.070555E-10
1081.000000	0.002390	-8.809651E-10
1084.000000	0.002483	-8.544637E-10
1087.000000	0.002769	-8.647995E-10
1090.000000	0.002814	-8.565578E-10
1093.000000	0.002870	-8.368840E-10
1096.000000	0.002896	-8.332124E-10
1099.000000	0.002710	-8.393071E-10
