Wavelength (nm)	EQE (%)	Current (A)	Dark Current (A) -> 	-161.608740000E-12	
400.000000	34.171769	-7.227685E-7
403.000000	36.182640	-1.739324E-6
406.000000	33.457360	-2.613711E-6
409.000000	33.978767	-3.736810E-6
412.000000	32.933237	-5.547877E-6
415.000000	31.120362	-2.503509E-6
418.000000	34.762721	-2.424981E-6
421.000000	32.597860	-2.673611E-6
424.000000	32.798912	-2.432157E-6
427.000000	32.375166	-3.137242E-6
430.000000	31.705076	-4.901303E-6
433.000000	30.551424	-4.426025E-6
436.000000	30.470249	-4.376180E-6
439.000000	30.089616	-4.740955E-6
442.000000	29.749091	-4.922126E-6
445.000000	28.947557	-5.441773E-6
448.000000	28.285632	-6.036643E-6
451.000000	26.934141	-5.064998E-6
454.000000	28.439948	-4.923323E-6
457.000000	27.387361	-5.293163E-6
460.000000	28.428855	-4.040139E-6
463.000000	26.367564	-6.442943E-6
466.000000	28.334668	-5.453085E-6
469.000000	27.844844	-4.931316E-6
472.000000	28.209590	-4.622520E-6
475.000000	27.191647	-4.226065E-6
478.000000	27.151913	-5.416942E-6
481.000000	28.770638	-4.779555E-6
484.000000	28.374882	-4.545876E-6
487.000000	27.904718	-6.174438E-6
490.000000	28.791293	-5.243267E-6
493.000000	28.384492	-5.255730E-6
496.000000	28.244276	-6.292116E-6
499.000000	29.053789	-6.450625E-6
502.000000	29.424006	-5.934716E-6
505.000000	29.155887	-7.161326E-6
508.000000	28.388927	-8.999344E-6
511.000000	28.119063	-1.024765E-5
514.000000	29.091577	-6.794647E-6
517.000000	30.155760	-6.937537E-6
520.000000	29.078101	-1.151271E-5
523.000000	28.753829	-1.037110E-5
526.000000	30.554597	-6.538121E-6
529.000000	30.645349	-8.680392E-6
532.000000	30.094376	-9.262767E-6
535.000000	30.888546	-4.426079E-6
538.000000	31.431459	-7.868895E-6
541.000000	30.150662	-1.012653E-5
544.000000	31.282840	-4.764814E-6
547.000000	30.691394	-8.694561E-6
550.000000	30.668164	-7.862989E-6
553.000000	31.651067	-5.859160E-6
556.000000	31.449672	-7.897625E-6
559.000000	31.871832	-5.545920E-6
562.000000	31.461357	-7.013426E-6
565.000000	32.002298	-6.683306E-6
568.000000	31.910092	-6.576007E-6
571.000000	31.662389	-7.753901E-6
574.000000	32.046608	-7.252611E-6
577.000000	31.041399	-1.045567E-5
580.000000	31.723082	-7.593811E-6
583.000000	31.806826	-8.075433E-6
586.000000	31.412990	-1.035312E-5
589.000000	32.151002	-7.304068E-6
592.000000	31.046096	-4.057630E-6
595.000000	29.915270	-4.674501E-6
598.000000	30.423611	-3.774722E-6
601.000000	30.350446	-5.146549E-6
604.000000	30.087582	-5.282189E-6
607.000000	30.947859	-5.824571E-6
610.000000	31.551448	-6.058343E-6
613.000000	31.206400	-1.020636E-5
616.000000	28.516020	-1.183069E-5
619.000000	29.938456	-7.131522E-6
622.000000	30.787669	-1.456825E-5
625.000000	28.559607	-1.622995E-5
628.000000	30.016628	-8.851308E-6
631.000000	30.991661	-1.104118E-5
634.000000	30.037887	-1.307830E-5
637.000000	29.734614	-1.660278E-5
640.000000	29.067799	-1.601866E-5
643.000000	29.943839	-1.568797E-5
646.000000	29.839984	-1.864203E-5
649.000000	30.020557	-1.819249E-5
652.000000	29.712405	-2.253066E-5
655.000000	29.320639	-2.044400E-5
658.000000	29.960960	-2.261413E-5
661.000000	28.079759	-2.540300E-5
664.000000	28.755917	-2.299774E-5
667.000000	28.762812	-2.595310E-5
670.000000	28.302372	-2.561539E-5
673.000000	28.697563	-2.713952E-5
676.000000	28.222588	-2.823788E-5
679.000000	28.599785	-2.844394E-5
682.000000	28.811312	-2.916832E-5
685.000000	28.910603	-3.100104E-5
688.000000	29.123185	-3.101872E-5
691.000000	30.001430	-3.230711E-5
694.000000	30.285562	-3.139617E-5
697.000000	31.174075	-3.157524E-5
700.000000	30.939697	-3.448565E-5
703.000000	30.837640	-3.492675E-5
706.000000	30.387444	-3.547662E-5
709.000000	30.732408	-3.468334E-5
712.000000	30.099035	-3.871856E-5
715.000000	30.731236	-3.433539E-5
718.000000	30.539010	-3.232599E-5
721.000000	29.103781	-3.817678E-5
724.000000	28.844987	-2.952884E-5
727.000000	28.099462	-3.244156E-5
730.000000	26.809418	-2.736219E-5
733.000000	26.216311	-2.606774E-5
736.000000	24.228784	-2.436852E-5
739.000000	22.750518	-1.911191E-5
742.000000	21.075946	-2.005621E-5
745.000000	18.924108	-1.467156E-5
748.000000	17.529612	-1.438022E-5
751.000000	15.184560	-1.199441E-5
754.000000	13.446223	-9.257860E-6
757.000000	11.737336	-9.219743E-6
760.000000	9.902791	-6.311143E-6
763.000000	8.594989	-5.986741E-6
766.000000	7.179778	-4.550343E-6
769.000000	6.102869	-3.474286E-6
772.000000	5.057757	-3.190759E-6
775.000000	4.149859	-2.231951E-6
778.000000	3.525439	-2.086016E-6
781.000000	2.894467	-1.624322E-6
784.000000	2.420793	-1.280973E-6
787.000000	2.004858	-1.154668E-6
790.000000	1.642342	-8.607002E-7
793.000000	1.392160	-8.177915E-7
796.000000	1.144458	-6.375743E-7
799.000000	0.979196	-5.474467E-7
802.000000	0.825064	-4.912046E-7
805.000000	0.699621	-3.865617E-7
808.000000	0.606934	-3.700554E-7
811.000000	0.519031	-2.877668E-7
814.000000	0.464837	-2.736162E-7
817.000000	0.404531	-2.380744E-7
820.000000	0.364295	-2.092563E-7
823.000000	0.329591	-2.111338E-7
826.000000	0.292976	-1.689784E-7
829.000000	0.271912	-1.786337E-7
832.000000	0.241208	-1.501487E-7
835.000000	0.230100	-1.555566E-7
838.000000	0.213921	-1.462711E-7
841.000000	0.199457	-1.278393E-7
844.000000	0.184848	-1.293878E-7
847.000000	0.170465	-1.118727E-7
850.000000	0.161083	-1.150143E-7
853.000000	0.149756	-9.989949E-8
856.000000	0.140131	-9.421068E-8
859.000000	0.130991	-8.871238E-8
862.000000	0.123003	-7.612775E-8
865.000000	0.115181	-7.139173E-8
868.000000	0.108540	-6.260662E-8
871.000000	0.103116	-5.806697E-8
874.000000	0.097940	-5.076028E-8
877.000000	0.091157	-4.490398E-8
880.000000	0.086308	-4.183347E-8
883.000000	0.081056	-3.681254E-8
886.000000	0.077159	-3.457223E-8
889.000000	0.071954	-3.095526E-8
892.000000	0.067751	-2.812181E-8
895.000000	0.064475	-2.574411E-8
898.000000	0.060045	-2.380363E-8
901.000000	0.056692	-2.183260E-8
904.000000	0.053882	-2.164288E-8
907.000000	0.049438	-1.945203E-8
910.000000	0.046930	-1.817052E-8
913.000000	0.043797	-1.779179E-8
916.000000	0.040743	-1.566041E-8
919.000000	0.038287	-1.526309E-8
922.000000	0.035302	-1.415657E-8
925.000000	0.032946	-1.256883E-8
928.000000	0.030867	-1.226266E-8
931.000000	0.028412	-1.042722E-8
934.000000	0.026608	-1.034770E-8
937.000000	0.024477	-9.264881E-9
940.000000	0.022701	-7.986112E-9
943.000000	0.020974	-7.508599E-9
946.000000	0.019174	-6.482271E-9
949.000000	0.017677	-6.298936E-9
952.000000	0.016198	-5.475881E-9
955.000000	0.015074	-4.820307E-9
958.000000	0.013856	-4.294547E-9
961.000000	0.012585	-3.742454E-9
964.000000	0.011513	-3.413242E-9
967.000000	0.010489	-2.957046E-9
970.000000	0.009640	-2.675142E-9
973.000000	0.008821	-2.343640E-9
976.000000	0.008073	-2.060789E-9
979.000000	0.007418	-1.748857E-9
982.000000	0.006810	-1.477086E-9
985.000000	0.006225	-1.320852E-9
988.000000	0.005661	-1.174539E-9
991.000000	0.005125	-1.041281E-9
994.000000	0.004716	-8.931075E-10
997.000000	0.004375	-8.020307E-10
1000.000000	0.003973	-7.318356E-10
1003.000000	0.003608	-6.598869E-10
1006.000000	0.003267	-5.807997E-10
1009.000000	0.003009	-5.139305E-10
1012.000000	0.002756	-4.802437E-10
1015.000000	0.002519	-4.461813E-10
1018.000000	0.002326	-4.126235E-10
1021.000000	0.002098	-3.811302E-10
1024.000000	0.001924	-3.616622E-10
1027.000000	0.001785	-3.670353E-10
1030.000000	0.001619	-3.585473E-10
1033.000000	0.001392	-3.222681E-10
1036.000000	0.001171	-3.015505E-10
1039.000000	0.000986	-2.878893E-10
1042.000000	0.001022	-2.673885E-10
1045.000000	0.001046	-2.283108E-10
1048.000000	0.000982	-2.093063E-10
1051.000000	0.000910	-1.981849E-10
1054.000000	0.000803	-1.991176E-10
1057.000000	0.000711	-1.987538E-10
1060.000000	0.000634	-2.006193E-10
1063.000000	0.000551	-2.116936E-10
1066.000000	0.000466	-2.332501E-10
1069.000000	0.000376	-4.011443E-10
1072.000000	0.000272	-5.947599E-10
1075.000000	0.000360	-2.337017E-10
1078.000000	0.000369	-1.668677E-10
1081.000000	0.000380	-1.400204E-10
1084.000000	0.000380	-1.308113E-10
1087.000000	0.000382	-1.191973E-10
1090.000000	0.000368	-1.120528E-10
1093.000000	0.000368	-1.071959E-10
1096.000000	0.000354	-1.019460E-10
1099.000000	0.000329	-1.017995E-10
