Wavelength (nm)	EQE (%)	Current (A)	Dark Current (A) -> 	-39.825942000E-12	
400.000000	26.862578	-5.681715E-7
403.000000	28.606087	-1.375114E-6
406.000000	26.738958	-2.088865E-6
409.000000	27.574967	-3.032553E-6
412.000000	27.217003	-4.584930E-6
415.000000	25.217571	-2.028653E-6
418.000000	28.395875	-1.980842E-6
421.000000	26.670014	-2.187421E-6
424.000000	26.860616	-1.991811E-6
427.000000	26.719680	-2.589210E-6
430.000000	26.572270	-4.107820E-6
433.000000	25.266851	-3.660442E-6
436.000000	25.209021	-3.620555E-6
439.000000	24.811895	-3.909391E-6
442.000000	24.614863	-4.072644E-6
445.000000	24.014793	-4.514476E-6
448.000000	23.361106	-4.985664E-6
451.000000	21.760737	-4.092133E-6
454.000000	23.304537	-4.034317E-6
457.000000	22.926950	-4.431098E-6
460.000000	23.707112	-3.369113E-6
463.000000	22.377621	-5.467996E-6
466.000000	24.402399	-4.696309E-6
469.000000	24.051186	-4.259460E-6
472.000000	24.460187	-4.008130E-6
475.000000	23.534118	-3.657620E-6
478.000000	24.343923	-4.856734E-6
481.000000	25.882832	-4.299815E-6
484.000000	25.555911	-4.094255E-6
487.000000	25.814453	-5.711928E-6
490.000000	26.785719	-4.878026E-6
493.000000	26.455500	-4.898554E-6
496.000000	26.729990	-5.954771E-6
499.000000	27.697662	-6.149533E-6
502.000000	28.754063	-5.799591E-6
505.000000	28.603197	-7.025573E-6
508.000000	28.143909	-8.921673E-6
511.000000	27.889888	-1.016413E-5
514.000000	28.399637	-6.633037E-6
517.000000	29.300271	-6.740726E-6
520.000000	28.981846	-1.147460E-5
523.000000	28.266535	-1.019534E-5
526.000000	29.768048	-6.369814E-6
529.000000	30.279111	-8.576654E-6
532.000000	29.432797	-9.059139E-6
535.000000	28.756088	-4.120515E-6
538.000000	31.133769	-7.794368E-6
541.000000	30.727919	-1.032041E-5
544.000000	30.081946	-4.581901E-6
547.000000	30.655180	-8.684302E-6
550.000000	30.260869	-7.758563E-6
553.000000	31.086079	-5.754571E-6
556.000000	31.434210	-7.893742E-6
559.000000	31.241714	-5.436275E-6
562.000000	30.893485	-6.886835E-6
565.000000	31.407580	-6.559106E-6
568.000000	31.034501	-6.395566E-6
571.000000	30.836106	-7.551550E-6
574.000000	31.762799	-7.188381E-6
577.000000	30.942952	-1.042251E-5
580.000000	31.392684	-7.514721E-6
583.000000	31.744701	-8.059660E-6
586.000000	31.496156	-1.038053E-5
589.000000	31.734002	-7.209334E-6
592.000000	30.697113	-4.012019E-6
595.000000	29.621640	-4.628619E-6
598.000000	30.000640	-3.722243E-6
601.000000	29.979787	-5.083696E-6
604.000000	30.110508	-5.286214E-6
607.000000	30.746059	-5.786591E-6
610.000000	30.967123	-5.946144E-6
613.000000	31.470480	-1.029273E-5
616.000000	29.232133	-1.212779E-5
619.000000	29.556161	-7.040457E-6
622.000000	31.724661	-1.501162E-5
625.000000	28.621636	-1.626520E-5
628.000000	30.279511	-8.928827E-6
631.000000	31.478465	-1.121461E-5
634.000000	30.935098	-1.346894E-5
637.000000	30.276141	-1.690515E-5
640.000000	30.051813	-1.656093E-5
643.000000	30.619028	-1.604171E-5
646.000000	30.933811	-1.932538E-5
649.000000	31.244268	-1.893406E-5
652.000000	30.981904	-2.349331E-5
655.000000	30.525662	-2.128421E-5
658.000000	31.347206	-2.366045E-5
661.000000	29.967204	-2.711052E-5
664.000000	30.154955	-2.411663E-5
667.000000	30.446605	-2.747241E-5
670.000000	30.102592	-2.724470E-5
673.000000	30.459640	-2.880593E-5
676.000000	29.929573	-2.994579E-5
679.000000	30.423482	-3.025770E-5
682.000000	30.594546	-3.097365E-5
685.000000	30.727498	-3.294931E-5
688.000000	31.016016	-3.303475E-5
691.000000	31.519085	-3.394140E-5
694.000000	31.620074	-3.277962E-5
697.000000	32.200072	-3.261444E-5
700.000000	32.216360	-3.590863E-5
703.000000	31.669477	-3.586889E-5
706.000000	30.957134	-3.614172E-5
709.000000	30.981159	-3.496407E-5
712.000000	30.109895	-3.873253E-5
715.000000	30.186377	-3.372663E-5
718.000000	29.282239	-3.099568E-5
721.000000	27.938480	-3.664820E-5
724.000000	26.985961	-2.762574E-5
727.000000	25.898385	-2.990036E-5
730.000000	24.218009	-2.471735E-5
733.000000	23.447419	-2.331454E-5
736.000000	21.568765	-2.169316E-5
739.000000	20.089343	-1.687635E-5
742.000000	18.531790	-1.763515E-5
745.000000	16.541497	-1.282436E-5
748.000000	15.175341	-1.244892E-5
751.000000	13.155628	-1.039174E-5
754.000000	11.788993	-8.116841E-6
757.000000	10.349651	-8.129709E-6
760.000000	8.751282	-5.577275E-6
763.000000	7.637571	-5.319863E-6
766.000000	6.459678	-4.093964E-6
769.000000	5.518025	-3.141342E-6
772.000000	4.625749	-2.918221E-6
775.000000	3.790557	-2.038705E-6
778.000000	3.245313	-1.920264E-6
781.000000	2.680913	-1.504479E-6
784.000000	2.268947	-1.200623E-6
787.000000	1.892000	-1.089669E-6
790.000000	1.557039	-8.159958E-7
793.000000	1.332710	-7.828689E-7
796.000000	1.104451	-6.152866E-7
799.000000	0.946908	-5.293952E-7
802.000000	0.806767	-4.803114E-7
805.000000	0.686982	-3.795780E-7
808.000000	0.597859	-3.645219E-7
811.000000	0.514015	-2.849856E-7
814.000000	0.463063	-2.725717E-7
817.000000	0.405931	-2.388985E-7
820.000000	0.366467	-2.105038E-7
823.000000	0.333809	-2.138359E-7
826.000000	0.297124	-1.713710E-7
829.000000	0.276879	-1.818966E-7
832.000000	0.246719	-1.535795E-7
835.000000	0.235858	-1.594491E-7
838.000000	0.221268	-1.512946E-7
841.000000	0.207477	-1.329799E-7
844.000000	0.192302	-1.346052E-7
847.000000	0.177658	-1.165933E-7
850.000000	0.167669	-1.197170E-7
853.000000	0.155769	-1.039101E-7
856.000000	0.145960	-9.812936E-8
859.000000	0.136761	-9.261990E-8
862.000000	0.128236	-7.936644E-8
865.000000	0.120755	-7.484647E-8
868.000000	0.113059	-6.521338E-8
871.000000	0.107401	-6.048022E-8
874.000000	0.102464	-5.310506E-8
877.000000	0.094922	-4.675888E-8
880.000000	0.090369	-4.380212E-8
883.000000	0.085152	-3.867271E-8
886.000000	0.080860	-3.623032E-8
889.000000	0.075693	-3.256377E-8
892.000000	0.071408	-2.963971E-8
895.000000	0.067321	-2.688032E-8
898.000000	0.063082	-2.500790E-8
901.000000	0.059556	-2.293575E-8
904.000000	0.056440	-2.267050E-8
907.000000	0.051996	-2.045818E-8
910.000000	0.049296	-1.908640E-8
913.000000	0.046078	-1.871880E-8
916.000000	0.042888	-1.648483E-8
919.000000	0.040261	-1.605007E-8
922.000000	0.037146	-1.489575E-8
925.000000	0.034448	-1.314149E-8
928.000000	0.032486	-1.290600E-8
931.000000	0.029908	-1.097648E-8
934.000000	0.028122	-1.093671E-8
937.000000	0.025805	-9.767545E-9
940.000000	0.023938	-8.421104E-9
943.000000	0.022072	-7.901546E-9
946.000000	0.020126	-6.803945E-9
949.000000	0.018600	-6.627804E-9
952.000000	0.016917	-5.719008E-9
955.000000	0.015839	-5.064759E-9
958.000000	0.014532	-4.504160E-9
961.000000	0.013179	-3.919052E-9
964.000000	0.012093	-3.585298E-9
967.000000	0.010960	-3.089821E-9
970.000000	0.010042	-2.786646E-9
973.000000	0.009165	-2.435115E-9
976.000000	0.008398	-2.143953E-9
979.000000	0.007676	-1.809718E-9
982.000000	0.007022	-1.522991E-9
985.000000	0.006378	-1.353289E-9
988.000000	0.005758	-1.194693E-9
991.000000	0.005219	-1.060537E-9
994.000000	0.004769	-9.032424E-10
997.000000	0.004375	-8.019658E-10
1000.000000	0.003961	-7.295652E-10
1003.000000	0.003592	-6.569416E-10
1006.000000	0.003200	-5.688917E-10
1009.000000	0.002936	-5.015651E-10
1012.000000	0.002682	-4.673035E-10
1015.000000	0.002411	-4.271410E-10
1018.000000	0.002210	-3.921401E-10
1021.000000	0.001966	-3.571981E-10
1024.000000	0.001801	-3.386683E-10
1027.000000	0.001661	-3.414838E-10
1030.000000	0.001520	-3.366447E-10
1033.000000	0.001277	-2.956318E-10
1036.000000	0.001053	-2.711834E-10
1039.000000	0.000885	-2.585543E-10
1042.000000	0.000906	-2.370273E-10
1045.000000	0.000882	-1.925887E-10
1048.000000	0.000822	-1.751734E-10
1051.000000	0.000749	-1.631605E-10
1054.000000	0.000657	-1.629963E-10
1057.000000	0.000590	-1.647619E-10
1060.000000	0.000520	-1.644510E-10
1063.000000	0.000449	-1.725397E-10
1066.000000	0.000396	-1.982256E-10
1069.000000	0.000354	-3.774815E-10
1072.000000	0.000271	-5.926538E-10
1075.000000	0.000302	-1.957561E-10
1078.000000	0.000290	-1.311397E-10
1081.000000	0.000271	-9.994004E-11
1084.000000	0.000260	-8.945802E-11
1087.000000	0.000256	-7.992033E-11
1090.000000	0.000240	-7.297536E-11
1093.000000	0.000232	-6.769035E-11
1096.000000	0.000213	-6.139646E-11
1099.000000	0.000204	-6.326759E-11
